Data from coltest_Reflection_006.txt Node
Date: Mon Feb 02 14:06:38 EST 2015
User: jamesohanlon
Spectrometer: JAZA0776
Autoset integration time: false
Trigger mode: 0
Integration Time (sec): 1.000000E-1
Scans to average: 10
Electric dark correction enabled: true
Nonlinearity correction enabled: false
Boxcar width: 10
Stray light correction enabled: false
XAxis mode: Wavelengths
Stop averaging: false
Number of Pixels in Spectrum: 2048
>>>>>Begin Spectral Data<<<<<
190.472	-58.35
190.851	2.97
191.23	37.03
191.609	91.07
191.988	47.87
192.366	50.72
192.745	35.19
193.124	41.87
193.503	52.3
193.882	61.19
194.26	54.84
194.639	41.74
195.018	37.39
195.397	34.27
195.775	38.76
196.154	33.92
196.532	33.62
196.911	31.77
197.29	23.36
197.668	15.91
198.047	15.39
198.425	16.91
198.803	12.88
199.182	13.99
199.56	14.12
199.939	12.28
200.317	10.96
200.695	15.83
201.074	15.59
201.452	14.76
201.83	14.09
202.208	10.01
202.587	9.51
202.965	3.68
203.343	4.21
203.721	-0.11
204.099	1.07
204.477	2.82
204.855	4.5
205.233	6.76
205.611	7.98
205.989	3.65
206.367	4.14
206.745	3.43
207.123	0.59
207.501	2.04
207.879	3.85
208.257	5.9
208.635	3.78
209.012	1.62
209.39	-0.9
209.768	-1.45
210.146	1.59
210.523	0.6
210.901	0.34
211.278	-2.02
211.656	0.36
212.034	0.2
212.411	-1.69
212.789	0.03
213.166	5.19
213.544	5.69
213.921	5.65
214.299	9.38
214.676	8.97
215.053	9.14
215.431	7.41
215.808	8.83
216.185	10.62
216.563	13.1
216.94	14.78
217.317	14.04
217.694	17.34
218.072	17.83
218.449	18.41
218.826	18.11
219.203	19.57
219.58	22.99
219.957	22.66
220.334	20.98
220.711	20.82
221.088	22.65
221.465	24.97
221.842	26.54
222.219	28.4
222.596	28.51
222.973	28.93
223.349	28.94
223.726	29.34
224.103	29.78
224.48	29.65
224.856	29.24
225.233	29.65
225.61	29.48
225.986	29.57
226.363	30.1
226.74	29.43
227.116	29.22
227.493	29.42
227.869	29.92
228.246	30.33
228.622	29.64
228.999	29.25
229.375	28.77
229.751	28.27
230.128	28.52
230.504	28.6
230.88	28.43
231.257	28.02
231.633	27.69
232.009	27.69
232.385	27.63
232.761	27.66
233.138	27.65
233.514	27.7
233.89	27.7
234.266	27.54
234.642	27.41
235.018	26.66
235.394	26.62
235.77	26.63
236.146	26.59
236.522	26.28
236.898	26.13
237.274	25.84
237.649	25.36
238.025	25.13
238.401	25.08
238.777	25.05
239.152	24.82
239.528	24.55
239.904	24.36
240.279	24.07
240.655	23.91
241.031	23.79
241.406	23.72
241.782	23.47
242.157	23.42
242.533	23.3
242.908	23.13
243.284	22.98
243.659	22.83
244.034	22.76
244.41	22.71
244.785	22.68
245.16	22.58
245.536	22.43
245.911	22.34
246.286	22.3
246.661	22.28
247.037	22.11
247.412	21.98
247.787	21.92
248.162	21.8
248.537	21.61
248.912	21.48
249.287	21.36
249.662	21.31
250.037	21.21
250.412	21.21
250.787	21.1
251.162	21.01
251.537	20.82
251.911	20.69
252.286	20.59
252.661	20.35
253.036	20.31
253.41	20.29
253.785	20.05
254.16	19.83
254.534	19.76
254.909	19.72
255.284	19.66
255.658	19.59
256.033	19.41
256.407	19.26
256.782	19.15
257.156	19.11
257.53	19
257.905	18.89
258.279	18.91
258.654	18.86
259.028	18.82
259.402	18.74
259.776	18.74
260.151	18.65
260.525	18.61
260.899	18.59
261.273	18.6
261.647	18.62
262.021	18.57
262.395	18.6
262.769	18.58
263.143	18.53
263.517	18.57
263.891	18.6
264.265	18.61
264.639	18.59
265.013	18.56
265.387	18.54
265.761	18.45
266.135	18.42
266.508	18.4
266.882	18.39
267.256	18.38
267.629	18.35
268.003	18.34
268.377	18.22
268.75	18.16
269.124	18.2
269.497	18.25
269.871	18.2
270.244	18.17
270.618	18.08
270.991	18.09
271.365	18.09
271.738	18.1
272.111	18.12
272.485	18.13
272.858	18.19
273.231	18.18
273.604	18.13
273.978	18.11
274.351	18.09
274.724	18.13
275.097	18.09
275.47	18.11
275.843	18.15
276.216	18.15
276.589	18.05
276.962	18.01
277.335	17.96
277.708	17.95
278.081	17.96
278.454	17.94
278.827	17.87
279.2	17.86
279.572	17.84
279.945	17.82
280.318	17.76
280.691	17.72
281.063	17.7
281.436	17.64
281.808	17.56
282.181	17.51
282.554	17.49
282.926	17.47
283.299	17.51
283.671	17.5
284.044	17.47
284.416	17.39
284.788	17.34
285.161	17.24
285.533	17.13
285.905	17.13
286.278	17.09
286.65	17.05
287.022	17
287.394	16.93
287.766	16.85
288.139	16.76
288.511	16.75
288.883	16.72
289.255	16.73
289.627	16.65
289.999	16.58
290.371	16.52
290.743	16.44
291.115	16.38
291.486	16.31
291.858	16.28
292.23	16.21
292.602	16.19
292.974	16.13
293.345	16.06
293.717	16.02
294.089	15.98
294.46	15.92
294.832	15.84
295.204	15.78
295.575	15.74
295.947	15.68
296.318	15.64
296.69	15.62
297.061	15.6
297.433	15.53
297.804	15.47
298.175	15.37
298.547	15.32
298.918	15.25
299.289	15.2
299.66	15.24
300.032	15.18
300.403	15.17
300.774	15.17
301.145	15.08
301.516	15.02
301.887	14.98
302.258	14.9
302.629	14.87
303	14.84
303.371	14.81
303.742	14.77
304.113	14.67
304.484	14.59
304.855	14.52
305.226	14.45
305.596	14.46
305.967	14.41
306.338	14.35
306.708	14.31
307.079	14.27
307.45	14.23
307.82	14.17
308.191	14.1
308.561	14.05
308.932	14.01
309.302	13.99
309.673	13.96
310.043	13.97
310.414	13.94
310.784	13.89
311.154	13.91
311.525	13.87
311.895	13.86
312.265	13.78
312.635	13.76
313.006	13.74
313.376	13.72
313.746	13.63
314.116	13.6
314.486	13.54
314.856	13.43
315.226	13.45
315.596	13.39
315.966	13.33
316.336	13.31
316.706	13.25
317.076	13.21
317.445	13.19
317.815	13.13
318.185	13.07
318.555	12.99
318.924	12.91
319.294	12.92
319.664	12.83
320.033	12.82
320.403	12.79
320.772	12.69
321.142	12.67
321.511	12.61
321.881	12.56
322.25	12.5
322.62	12.41
322.989	12.37
323.358	12.37
323.728	12.33
324.097	12.26
324.466	12.25
324.836	12.16
325.205	12.12
325.574	12.05
325.943	12.07
326.312	11.97
326.681	11.92
327.05	11.86
327.419	11.83
327.788	11.82
328.157	11.79
328.526	11.78
328.895	11.75
329.264	11.72
329.633	11.73
330.001	11.72
330.37	11.66
330.739	11.62
331.108	11.6
331.476	11.57
331.845	11.54
332.214	11.51
332.582	11.48
332.951	11.44
333.319	11.4
333.688	11.37
334.056	11.36
334.425	11.26
334.793	11.26
335.161	11.24
335.53	11.24
335.898	11.2
336.266	11.21
336.635	11.13
337.003	11.09
337.371	11.06
337.739	11.03
338.107	11
338.475	10.95
338.843	10.94
339.212	10.88
339.58	10.88
339.947	10.84
340.315	10.75
340.683	10.72
341.051	10.71
341.419	10.73
341.787	10.73
342.155	10.71
342.522	10.69
342.89	10.64
343.258	10.57
343.625	10.53
343.993	10.48
344.361	10.45
344.728	10.4
345.096	10.35
345.463	10.29
345.831	10.28
346.198	10.28
346.566	10.24
346.933	10.23
347.3	10.23
347.668	10.22
348.035	10.21
348.402	10.21
348.769	10.2
349.137	10.11
349.504	10.11
349.871	10.06
350.238	10.04
350.605	10
350.972	9.99
351.339	9.94
351.706	9.97
352.073	9.98
352.44	9.96
352.807	9.98
353.174	9.99
353.54	10
353.907	9.98
354.274	10
354.641	9.94
355.007	9.94
355.374	9.94
355.741	9.95
356.107	9.91
356.474	9.87
356.84	9.86
357.207	9.84
357.573	9.82
357.94	9.82
358.306	9.82
358.673	9.81
359.039	9.82
359.405	9.81
359.771	9.8
360.138	9.8
360.504	9.79
360.87	9.8
361.236	9.76
361.602	9.72
361.968	9.73
362.335	9.71
362.701	9.69
363.067	9.65
363.432	9.61
363.798	9.59
364.164	9.65
364.53	9.65
364.896	9.62
365.262	9.59
365.628	9.57
365.993	9.56
366.359	9.54
366.725	9.51
367.09	9.48
367.456	9.47
367.821	9.48
368.187	9.43
368.553	9.39
368.918	9.35
369.283	9.32
369.649	9.27
370.014	9.26
370.38	9.28
370.745	9.23
371.11	9.25
371.475	9.22
371.841	9.21
372.206	9.19
372.571	9.22
372.936	9.17
373.301	9.15
373.666	9.13
374.031	9.09
374.396	9.08
374.761	9.07
375.126	9.07
375.491	9.07
375.856	9.06
376.221	9.04
376.586	9.06
376.95	9
377.315	8.96
377.68	8.94
378.044	8.93
378.409	8.93
378.774	8.94
379.138	8.91
379.503	8.9
379.867	8.87
380.232	8.87
380.596	8.86
380.961	8.87
381.325	8.88
381.689	8.88
382.054	8.89
382.418	8.91
382.782	8.89
383.146	8.91
383.51	8.88
383.875	8.88
384.239	8.87
384.603	8.87
384.967	8.85
385.331	8.82
385.695	8.83
386.059	8.79
386.423	8.78
386.786	8.74
387.15	8.71
387.514	8.69
387.878	8.69
388.242	8.68
388.605	8.67
388.969	8.67
389.333	8.67
389.696	8.68
390.06	8.66
390.423	8.66
390.787	8.65
391.15	8.67
391.514	8.65
391.877	8.67
392.241	8.69
392.604	8.68
392.967	8.67
393.331	8.66
393.694	8.66
394.057	8.63
394.42	8.61
394.783	8.62
395.146	8.61
395.51	8.6
395.873	8.59
396.236	8.57
396.599	8.55
396.962	8.51
397.324	8.47
397.687	8.45
398.05	8.45
398.413	8.46
398.776	8.46
399.138	8.46
399.501	8.46
399.864	8.46
400.227	8.45
400.589	8.43
400.952	8.42
401.314	8.43
401.677	8.43
402.039	8.45
402.402	8.43
402.764	8.4
403.126	8.4
403.489	8.4
403.851	8.41
404.213	8.4
404.576	8.4
404.938	8.38
405.3	8.36
405.662	8.34
406.024	8.31
406.386	8.31
406.748	8.31
407.11	8.3
407.472	8.28
407.834	8.3
408.196	8.33
408.558	8.3
408.92	8.32
409.282	8.31
409.643	8.34
410.005	8.33
410.367	8.34
410.728	8.33
411.09	8.33
411.452	8.33
411.813	8.34
412.175	8.35
412.536	8.32
412.898	8.29
413.259	8.29
413.62	8.29
413.982	8.29
414.343	8.28
414.704	8.29
415.066	8.27
415.427	8.27
415.788	8.27
416.149	8.26
416.51	8.26
416.871	8.25
417.232	8.24
417.593	8.24
417.954	8.24
418.315	8.22
418.676	8.22
419.037	8.22
419.398	8.23
419.759	8.24
420.119	8.24
420.48	8.24
420.841	8.25
421.201	8.27
421.562	8.25
421.923	8.25
422.283	8.26
422.644	8.25
423.004	8.23
423.365	8.22
423.725	8.21
424.086	8.21
424.446	8.2
424.806	8.19
425.166	8.18
425.527	8.17
425.887	8.15
426.247	8.14
426.607	8.15
426.967	8.15
427.327	8.15
427.687	8.15
428.047	8.14
428.407	8.13
428.767	8.13
429.127	8.12
429.487	8.12
429.847	8.14
430.207	8.15
430.566	8.13
430.926	8.15
431.286	8.16
431.645	8.16
432.005	8.17
432.365	8.19
432.724	8.2
433.084	8.2
433.443	8.18
433.803	8.17
434.162	8.14
434.521	8.14
434.881	8.13
435.24	8.14
435.599	8.13
435.958	8.11
436.318	8.12
436.677	8.13
437.036	8.14
437.395	8.14
437.754	8.15
438.113	8.16
438.472	8.17
438.831	8.17
439.19	8.18
439.549	8.19
439.908	8.19
440.266	8.17
440.625	8.17
440.984	8.17
441.343	8.16
441.701	8.16
442.06	8.16
442.418	8.17
442.777	8.16
443.136	8.17
443.494	8.17
443.852	8.17
444.211	8.15
444.569	8.14
444.928	8.11
445.286	8.13
445.644	8.1
446.002	8.1
446.361	8.1
446.719	8.1
447.077	8.09
447.435	8.08
447.793	8.08
448.151	8.08
448.509	8.09
448.867	8.09
449.225	8.09
449.583	8.1
449.94	8.09
450.298	8.1
450.656	8.1
451.014	8.1
451.371	8.08
451.729	8.07
452.087	8.08
452.444	8.08
452.802	8.08
453.159	8.08
453.517	8.08
453.874	8.07
454.232	8.07
454.589	8.08
454.946	8.11
455.304	8.12
455.661	8.15
456.018	8.15
456.375	8.14
456.732	8.15
457.09	8.15
457.447	8.16
457.804	8.16
458.161	8.16
458.518	8.16
458.875	8.17
459.231	8.17
459.588	8.17
459.945	8.16
460.302	8.17
460.659	8.18
461.015	8.17
461.372	8.16
461.729	8.16
462.085	8.16
462.442	8.16
462.798	8.16
463.155	8.15
463.511	8.15
463.868	8.14
464.224	8.14
464.58	8.14
464.937	8.13
465.293	8.14
465.649	8.15
466.005	8.15
466.362	8.14
466.718	8.14
467.074	8.12
467.43	8.13
467.786	8.14
468.142	8.12
468.498	8.13
468.854	8.14
469.21	8.14
469.565	8.16
469.921	8.15
470.277	8.12
470.633	8.13
470.988	8.14
471.344	8.13
471.7	8.13
472.055	8.13
472.411	8.11
472.766	8.11
473.122	8.11
473.477	8.11
473.832	8.12
474.188	8.12
474.543	8.14
474.898	8.13
475.254	8.12
475.609	8.11
475.964	8.1
476.319	8.08
476.674	8.07
477.029	8.05
477.384	8.05
477.739	8.06
478.094	8.05
478.449	8.06
478.804	8.06
479.159	8.05
479.513	8.05
479.868	8.05
480.223	8.04
480.578	8.04
480.932	8.04
481.287	8.04
481.641	8.04
481.996	8.04
482.35	8.04
482.705	8.05
483.059	8.05
483.414	8.06
483.768	8.05
484.122	8.04
484.477	8.04
484.831	8.04
485.185	8.05
485.539	8.06
485.893	8.06
486.247	8.07
486.601	8.07
486.955	8.08
487.309	8.08
487.663	8.08
488.017	8.08
488.371	8.08
488.725	8.08
489.078	8.08
489.432	8.08
489.786	8.08
490.14	8.09
490.493	8.1
490.847	8.11
491.2	8.13
491.554	8.14
491.907	8.15
492.261	8.15
492.614	8.16
492.967	8.16
493.321	8.17
493.674	8.19
494.027	8.19
494.38	8.2
494.734	8.22
495.087	8.24
495.44	8.26
495.793	8.27
496.146	8.27
496.499	8.28
496.852	8.28
497.205	8.29
497.558	8.29
497.91	8.29
498.263	8.3
498.616	8.31
498.969	8.33
499.321	8.35
499.674	8.35
500.027	8.34
500.379	8.34
500.732	8.35
501.084	8.35
501.436	8.34
501.789	8.35
502.141	8.36
502.494	8.37
502.846	8.36
503.198	8.36
503.55	8.37
503.902	8.39
504.255	8.41
504.607	8.42
504.959	8.42
505.311	8.43
505.663	8.44
506.015	8.45
506.367	8.46
506.718	8.49
507.07	8.48
507.422	8.48
507.774	8.49
508.125	8.47
508.477	8.48
508.829	8.48
509.18	8.48
509.532	8.47
509.883	8.46
510.235	8.47
510.586	8.49
510.938	8.52
511.289	8.51
511.64	8.51
511.992	8.53
512.343	8.54
512.694	8.54
513.045	8.55
513.396	8.55
513.747	8.57
514.098	8.58
514.449	8.6
514.8	8.6
515.151	8.61
515.502	8.62
515.853	8.62
516.204	8.62
516.555	8.63
516.905	8.64
517.256	8.65
517.607	8.66
517.957	8.67
518.308	8.66
518.658	8.66
519.009	8.65
519.359	8.66
519.71	8.66
520.06	8.67
520.41	8.68
520.761	8.68
521.111	8.67
521.461	8.67
521.811	8.68
522.162	8.68
522.512	8.68
522.862	8.69
523.212	8.71
523.562	8.72
523.912	8.73
524.262	8.74
524.611	8.74
524.961	8.75
525.311	8.75
525.661	8.77
526.01	8.77
526.36	8.77
526.71	8.78
527.059	8.79
527.409	8.8
527.758	8.81
528.108	8.81
528.457	8.81
528.807	8.82
529.156	8.83
529.505	8.84
529.855	8.85
530.204	8.86
530.553	8.87
530.902	8.88
531.251	8.89
531.6	8.9
531.949	8.92
532.298	8.93
532.647	8.94
532.996	8.96
533.345	8.98
533.694	8.99
534.043	9.01
534.391	9.02
534.74	9.03
535.089	9.06
535.437	9.07
535.786	9.11
536.135	9.14
536.483	9.16
536.832	9.19
537.18	9.21
537.528	9.23
537.877	9.26
538.225	9.28
538.573	9.29
538.921	9.31
539.27	9.33
539.618	9.34
539.966	9.36
540.314	9.39
540.662	9.42
541.01	9.44
541.358	9.46
541.706	9.49
542.054	9.52
542.402	9.54
542.749	9.56
543.097	9.58
543.445	9.6
543.792	9.63
544.14	9.65
544.488	9.68
544.835	9.71
545.183	9.74
545.53	9.76
545.878	9.79
546.225	9.83
546.572	9.86
546.92	9.88
547.267	9.92
547.614	9.96
547.961	10.01
548.308	10.04
548.655	10.11
549.002	10.16
549.349	10.21
549.696	10.27
550.043	10.31
550.39	10.36
550.737	10.42
551.084	10.46
551.431	10.54
551.777	10.59
552.124	10.61
552.471	10.67
552.817	10.74
553.164	10.79
553.51	10.85
553.857	10.92
554.203	11
554.55	11.06
554.896	11.14
555.242	11.21
555.589	11.28
555.935	11.34
556.281	11.39
556.627	11.47
556.973	11.54
557.319	11.61
557.665	11.67
558.011	11.74
558.357	11.82
558.703	11.89
559.049	11.98
559.395	12.05
559.741	12.15
560.086	12.24
560.432	12.33
560.778	12.43
561.123	12.54
561.469	12.62
561.815	12.71
562.16	12.8
562.506	12.91
562.851	13.02
563.196	13.13
563.542	13.22
563.887	13.33
564.232	13.46
564.577	13.59
564.922	13.71
565.268	13.84
565.613	13.95
565.958	14.08
566.303	14.22
566.648	14.35
566.993	14.45
567.337	14.58
567.682	14.71
568.027	14.85
568.372	14.99
568.717	15.14
569.061	15.27
569.406	15.42
569.75	15.56
570.095	15.73
570.439	15.89
570.784	16.04
571.128	16.19
571.473	16.34
571.817	16.5
572.161	16.66
572.505	16.82
572.85	16.99
573.194	17.18
573.538	17.36
573.882	17.53
574.226	17.73
574.57	17.9
574.914	18.1
575.258	18.29
575.602	18.49
575.946	18.69
576.289	18.9
576.633	19.13
576.977	19.34
577.32	19.57
577.664	19.8
578.008	20.05
578.351	20.3
578.695	20.54
579.038	20.8
579.382	21.08
579.725	21.37
580.068	21.65
580.411	21.95
580.755	22.25
581.098	22.58
581.441	22.88
581.784	23.21
582.127	23.56
582.47	23.91
582.813	24.27
583.156	24.65
583.499	25.01
583.842	25.4
584.185	25.74
584.527	26.11
584.87	26.51
585.213	26.91
585.556	27.26
585.898	27.65
586.241	28.04
586.583	28.43
586.926	28.82
587.268	29.21
587.61	29.65
587.953	30.09
588.295	30.51
588.637	30.97
588.98	31.42
589.322	31.87
589.664	32.36
590.006	32.86
590.348	33.33
590.69	33.8
591.032	34.28
591.374	34.74
591.716	35.19
592.058	35.64
592.399	36.08
592.741	36.52
593.083	36.99
593.424	37.41
593.766	37.83
594.108	38.28
594.449	38.7
594.791	39.14
595.132	39.62
595.474	40.1
595.815	40.59
596.156	41.1
596.497	41.61
596.839	42.11
597.18	42.65
597.521	43.19
597.862	43.75
598.203	44.31
598.544	44.83
598.885	45.33
599.226	45.81
599.567	46.32
599.908	46.8
600.249	47.27
600.589	47.74
600.93	48.23
601.271	48.72
601.611	49.2
601.952	49.67
602.292	50.16
602.633	50.67
602.973	51.17
603.314	51.68
603.654	52.17
603.995	52.7
604.335	53.25
604.675	53.76
605.015	54.22
605.355	54.68
605.695	55.17
606.036	55.58
606.376	55.97
606.715	56.39
607.055	56.8
607.395	57.22
607.735	57.6
608.075	57.98
608.415	58.4
608.754	58.78
609.094	59.15
609.434	59.53
609.773	59.96
610.113	60.34
610.452	60.76
610.792	61.21
611.131	61.61
611.471	62
611.81	62.43
612.149	62.83
612.488	63.28
612.828	63.72
613.167	64.14
613.506	64.51
613.845	64.9
614.184	65.25
614.523	65.61
614.862	65.91
615.201	66.27
615.539	66.61
615.878	66.97
616.217	67.31
616.556	67.67
616.894	68.01
617.233	68.33
617.571	68.69
617.91	69.01
618.248	69.3
618.587	69.6
618.925	69.91
619.264	70.16
619.602	70.42
619.94	70.68
620.278	70.99
620.617	71.22
620.955	71.44
621.293	71.68
621.631	71.93
621.969	72.18
622.307	72.38
622.645	72.58
622.983	72.78
623.32	73.03
623.658	73.21
623.996	73.41
624.334	73.61
624.671	73.84
625.009	74.04
625.346	74.25
625.684	74.43
626.021	74.64
626.359	74.83
626.696	74.99
627.033	75.15
627.371	75.28
627.708	75.42
628.045	75.58
628.382	75.7
628.719	75.86
629.056	75.99
629.394	76.12
629.73	76.25
630.067	76.4
630.404	76.52
630.741	76.68
631.078	76.85
631.415	76.98
631.751	77.12
632.088	77.24
632.425	77.38
632.761	77.52
633.098	77.66
633.434	77.77
633.771	77.89
634.107	77.98
634.443	78.12
634.78	78.25
635.116	78.36
635.452	78.49
635.788	78.58
636.124	78.69
636.46	78.83
636.797	78.97
637.133	79
637.468	79.09
637.804	79.17
638.14	79.25
638.476	79.29
638.812	79.34
639.147	79.44
639.483	79.49
639.819	79.6
640.154	79.67
640.49	79.72
640.825	79.82
641.161	79.95
641.496	80.03
641.832	80.1
642.167	80.2
642.502	80.29
642.837	80.41
643.172	80.5
643.508	80.58
643.843	80.69
644.178	80.77
644.513	80.83
644.848	80.89
645.183	80.96
645.517	81.04
645.852	81.06
646.187	81.11
646.522	81.16
646.856	81.26
647.191	81.36
647.526	81.45
647.86	81.48
648.195	81.49
648.529	81.56
648.863	81.62
649.198	81.63
649.532	81.67
649.866	81.72
650.201	81.75
650.535	81.75
650.869	81.82
651.203	81.86
651.537	81.96
651.871	81.98
652.205	82.03
652.539	82.13
652.873	82.15
653.206	82.24
653.54	82.24
653.874	82.25
654.208	82.29
654.541	82.33
654.875	82.38
655.208	82.4
655.542	82.49
655.875	82.52
656.209	82.56
656.542	82.49
656.875	82.53
657.208	82.57
657.542	82.55
657.875	82.58
658.208	82.58
658.541	82.62
658.874	82.68
659.207	82.68
659.54	82.73
659.873	82.75
660.206	82.78
660.538	82.71
660.871	82.72
661.204	82.75
661.536	82.78
661.869	82.77
662.202	82.79
662.534	82.81
662.867	82.85
663.199	82.86
663.531	82.82
663.864	82.76
664.196	82.77
664.528	82.81
664.86	82.79
665.193	82.73
665.525	82.7
665.857	82.69
666.189	82.68
666.521	82.65
666.853	82.63
667.184	82.68
667.516	82.66
667.848	82.68
668.18	82.6
668.511	82.6
668.843	82.54
669.175	82.51
669.506	82.52
669.838	82.48
670.169	82.49
670.5	82.45
670.832	82.46
671.163	82.41
671.494	82.39
671.826	82.38
672.157	82.34
672.488	82.29
672.819	82.3
673.15	82.31
673.481	82.32
673.812	82.22
674.143	82.3
674.473	82.25
674.804	82.24
675.135	82.25
675.466	82.32
