Data from coltest_Reflection_007.txt Node
Date: Mon Feb 02 14:06:58 EST 2015
User: jamesohanlon
Spectrometer: JAZA0776
Autoset integration time: false
Trigger mode: 0
Integration Time (sec): 1.000000E-1
Scans to average: 10
Electric dark correction enabled: true
Nonlinearity correction enabled: false
Boxcar width: 10
Stray light correction enabled: false
XAxis mode: Wavelengths
Stop averaging: false
Number of Pixels in Spectrum: 2048
>>>>>Begin Spectral Data<<<<<
190.472	-7727.53
190.851	-4352.85
191.23	-2654.42
191.609	-1620.94
191.988	-566.01
192.366	-827.45
192.745	62.21
193.124	267.26
193.503	-3.19
193.882	169.8
194.26	318.85
194.639	273.24
195.018	497.75
195.397	617.45
195.775	270.46
196.154	371.57
196.532	85.49
196.911	70.98
197.29	150.09
197.668	-10.95
198.047	102.67
198.425	42.22
198.803	-80.16
199.182	15.65
199.56	-32.88
199.939	-81.23
200.317	91.73
200.695	-80.87
201.074	17.1
201.452	-5.24
201.83	20.9
202.208	-160.14
202.587	-60.66
202.965	-76.18
203.343	17
203.721	-209.77
204.099	10
204.477	4.5
204.855	-48.44
205.233	79.62
205.611	-18.06
205.989	-25.28
206.367	35.94
206.745	-111.82
207.123	50.1
207.501	-53.15
207.879	80.22
208.257	-56.85
208.635	42.79
209.012	-3.69
209.39	-41.59
209.768	-19.02
210.146	37.48
210.523	-1.99
210.901	47.64
211.278	27.03
211.656	4.22
212.034	-29.67
212.411	5.61
212.789	15.91
213.166	-15.33
213.544	4.81
213.921	-51.78
214.299	-65.14
214.676	11.8
215.053	113
215.431	-32.81
215.808	-0.01
216.185	120.97
216.563	54.45
216.94	44.52
217.317	-19.53
217.694	-83.62
218.072	45.01
218.449	-16.97
218.826	9.75
219.203	9.83
219.58	61.31
219.957	7.96
220.334	6.82
220.711	-19.01
221.088	19.92
221.465	-17.92
221.842	32.58
222.219	-16.76
222.596	-3.1
222.973	17.03
223.349	17.13
223.726	32.32
224.103	-3.62
224.48	35.6
224.856	21.63
225.233	27.02
225.61	0.21
225.986	19.73
226.363	22.23
226.74	42.11
227.116	29.16
227.493	3.87
227.869	20.43
228.246	31.08
228.622	44.02
228.999	62.88
229.375	60.6
229.751	79.13
230.128	62.16
230.504	52.95
230.88	43.13
231.257	42.02
231.633	26.45
232.009	26.18
232.385	19.38
232.761	14.57
233.138	18.01
233.514	20.66
233.89	23.02
234.266	16.44
234.642	21.64
235.018	20.83
235.394	19.81
235.77	17.98
236.146	20.89
236.522	16.19
236.898	14.35
237.274	19.67
237.649	17.63
238.025	20.7
238.401	17.98
238.777	15.84
239.152	22.64
239.528	12.46
239.904	17.08
240.279	16.52
240.655	16.92
241.031	18.54
241.406	20.33
241.782	25.59
242.157	29.47
242.533	28.43
242.908	36.39
243.284	30.89
243.659	28.45
244.034	25.87
244.41	22.12
244.785	21.19
245.16	17.05
245.536	20.52
245.911	21.9
246.286	26.02
246.661	29.64
247.037	39.57
247.412	41.91
247.787	42.32
248.162	38.77
248.537	32.94
248.912	27.66
249.287	26.88
249.662	19.06
250.037	17.2
250.412	15.27
250.787	16.52
251.162	17.7
251.537	18.78
251.911	19.92
252.286	21.87
252.661	18.77
253.036	17.72
253.41	15.67
253.785	13.47
254.16	10.91
254.534	10.27
254.909	11.19
255.284	10.82
255.658	12.25
256.033	14.21
256.407	11.23
256.782	13.89
257.156	14.79
257.53	16.38
257.905	14.87
258.279	16.57
258.654	19.4
259.028	25.85
259.402	30.05
259.776	32.35
260.151	36.1
260.525	36.83
260.899	33.78
261.273	25.83
261.647	22.57
262.021	19.49
262.395	18.96
262.769	16.22
263.143	17.72
263.517	16.91
263.891	15.37
264.265	12.83
264.639	12.83
265.013	10.51
265.387	12.18
265.761	12.05
266.135	14.79
266.508	14.83
266.882	16.35
267.256	15.7
267.629	17.51
268.003	16.06
268.377	17.52
268.75	19.07
269.124	18.43
269.497	16.21
269.871	16.61
270.244	15.85
270.618	19.33
270.991	19.44
271.365	23.48
271.738	25.02
272.111	24.71
272.485	23.29
272.858	22.76
273.231	21.01
273.604	20.92
273.978	18.28
274.351	17.14
274.724	17.38
275.097	16.61
275.47	15.99
275.843	16.25
276.216	16.61
276.589	16.89
276.962	17.9
277.335	17.89
277.708	15.81
278.081	16.58
278.454	17.03
278.827	16.04
279.2	15.1
279.572	14.44
279.945	15.3
280.318	16.27
280.691	16.57
281.063	16.43
281.436	17.81
281.808	19.27
282.181	20.23
282.554	20.23
282.926	18.37
283.299	17.22
283.671	17.6
284.044	17.23
284.416	18.71
284.788	17.67
285.161	17.82
285.533	19.64
285.905	19.98
286.278	19.81
286.65	20.2
287.022	20.25
287.394	18.75
287.766	16.61
288.139	15.05
288.511	14.68
288.883	14.58
289.255	15.94
289.627	14.16
289.999	15.83
290.371	16.08
290.743	17.93
291.115	16.67
291.486	16.6
291.858	14.7
292.23	13.58
292.602	13.93
292.974	14.37
293.345	14.45
293.717	14.51
294.089	16.54
294.46	17.31
294.832	18.61
295.204	17.01
295.575	18.21
295.947	18.01
296.318	19.15
296.69	19.85
297.061	19.84
297.433	20.44
297.804	19.79
298.175	18.57
298.547	17.26
298.918	15.92
299.289	15.59
299.66	15.3
300.032	14.84
300.403	14.74
300.774	15.45
301.145	14.41
301.516	14.29
301.887	13.82
302.258	13.17
302.629	13.53
303	12.86
303.371	11.98
303.742	13.31
304.113	12.66
304.484	12.42
304.855	12.8
305.226	13.62
305.596	12.71
305.967	13.67
306.338	13.8
306.708	13.51
307.079	13.14
307.45	13.13
307.82	13.51
308.191	14.17
308.561	14.74
308.932	14.14
309.302	14.98
309.673	14.65
310.043	15.48
310.414	17.36
310.784	15.54
311.154	15.47
311.525	14.09
311.895	14.46
312.265	13.25
312.635	13.11
313.006	13.97
313.376	12.8
313.746	13.4
314.116	15.05
314.486	14.86
314.856	16.78
315.226	14.95
315.596	12.85
315.966	12.64
316.336	11.66
316.706	12.04
317.076	12.42
317.445	10.44
317.815	13.32
318.185	12.65
318.555	11.91
318.924	11.76
319.294	13.44
319.664	11
320.033	10.55
320.403	11.65
320.772	10.33
321.142	9.68
321.511	11.05
321.881	9.9
322.25	11.51
322.62	11.18
322.989	12.2
323.358	10.93
323.728	13.51
324.097	14.39
324.466	14.33
324.836	13.12
325.205	12.51
325.574	11.75
325.943	13.6
326.312	13.29
326.681	14.1
327.05	12.49
327.419	12.41
327.788	10.32
328.157	9.11
328.526	11.33
328.895	9.95
329.264	10.64
329.633	10.47
330.001	13.45
330.37	10.66
330.739	10.86
331.108	10.75
331.476	10.94
331.845	10.3
332.214	9.31
332.582	11.09
332.951	12.12
333.319	13.7
333.688	13.29
334.056	12.17
334.425	11.11
334.793	11.1
335.161	11.05
335.53	10.73
335.898	12.04
336.266	11.06
336.635	11.33
337.003	10.33
337.371	10.2
337.739	9.44
338.107	10.51
338.475	10.27
338.843	9.35
339.212	9.65
339.58	8.96
339.947	9.07
340.315	10.03
340.683	10.76
341.051	9.4
341.419	10.78
341.787	11
342.155	9.68
342.522	10.32
342.89	10.14
343.258	10.73
343.625	10.53
343.993	10.8
344.361	10.02
344.728	10.93
345.096	11.04
345.463	10.99
345.831	10.63
346.198	11.8
346.566	10.46
346.933	11.48
347.3	11.12
347.668	8.13
348.035	9.39
348.402	8.51
348.769	9.43
349.137	10.52
349.504	9.95
349.871	9.47
350.238	10.08
350.605	8.71
350.972	8.79
351.339	9.05
351.706	8.91
352.073	9.04
352.44	8.67
352.807	8.56
353.174	8.1
353.54	9.09
353.907	9.57
354.274	9.94
354.641	9.23
355.007	9.78
355.374	9.42
355.741	9.81
356.107	8.43
356.474	10.15
356.84	9.41
357.207	10.63
357.573	10.95
357.94	11.16
358.306	10.49
358.673	9.93
359.039	9.59
359.405	8.74
359.771	9.36
360.138	10.94
360.504	10.7
360.87	12.41
361.236	12.15
361.602	13.72
361.968	14.14
362.335	12.51
362.701	12.26
363.067	10.12
363.432	10.47
363.798	8.85
364.164	8.83
364.53	9.6
364.896	9.49
365.262	8.37
365.628	8.76
365.993	9.24
366.359	8.93
366.725	8.21
367.09	8.21
367.456	8.6
367.821	8.17
368.187	8.67
368.553	8.04
368.918	6.83
369.283	8.94
369.649	8.37
370.014	9.05
370.38	8.89
370.745	9.84
371.11	9.69
371.475	9.07
371.841	8.93
372.206	8.72
372.571	8.41
372.936	8.53
373.301	8.46
373.666	9.1
374.031	8.18
374.396	9.18
374.761	8.42
375.126	8.73
375.491	9
375.856	8.67
376.221	10.3
376.586	10.79
376.95	11.55
377.315	9.73
377.68	10.63
378.044	9.74
378.409	9.09
378.774	8.67
379.138	8.55
379.503	8.19
379.867	8
380.232	8.95
380.596	9.18
380.961	9.14
381.325	7.88
381.689	7.95
382.054	8.3
382.418	8.9
382.782	7.7
383.146	8.56
383.51	8.49
383.875	8.99
384.239	9.81
384.603	8.21
384.967	8.46
385.331	8.4
385.695	8.9
386.059	8.62
386.423	8.2
386.786	8
387.15	8.95
387.514	8.56
387.878	7.86
388.242	8.7
388.605	7.89
388.969	8.78
389.333	8
389.696	8.18
390.06	8.12
390.423	8.38
390.787	9.02
391.15	9.41
391.514	9.49
391.877	10.21
392.241	8.94
392.604	9.53
392.967	9.56
393.331	8.91
393.694	9.81
394.057	9.69
394.42	9.46
394.783	9.44
395.146	9.33
395.51	9.21
395.873	9.2
396.236	8.18
396.599	7.95
396.962	8.28
397.324	8.47
397.687	8.22
398.05	8.05
398.413	7.83
398.776	7.46
399.138	7.63
399.501	8.1
399.864	6.97
400.227	8.05
400.589	7.15
400.952	7.27
401.314	7.08
401.677	7.92
402.039	8.81
402.402	7.42
402.764	8.68
403.126	8.49
403.489	9.14
403.851	8.74
404.213	10.55
404.576	10.05
404.938	8.65
405.3	9.37
405.662	8.93
406.024	8.89
406.386	7.92
406.748	9.22
407.11	8.42
407.472	8.63
407.834	8.51
408.196	8.19
408.558	7.61
408.92	8.28
409.282	8.32
409.643	8.59
410.005	9.09
410.367	8.48
410.728	8.67
411.09	7.77
411.452	7.24
411.813	7.32
412.175	7.33
412.536	7.37
412.898	7.55
413.259	6.55
413.62	7.63
413.982	6.82
414.343	7.11
414.704	6.63
415.066	7.21
415.427	7.05
415.788	6.54
416.149	8.03
416.51	6.44
416.871	7.69
417.232	7.63
417.593	7.72
417.954	7.19
418.315	8.53
418.676	7.88
419.037	8.45
419.398	8.36
419.759	8.64
420.119	8.76
420.48	9.66
420.841	9.76
421.201	10.04
421.562	10.02
421.923	9.68
422.283	9.87
422.644	9.1
423.004	9.07
423.365	9.71
423.725	9.43
424.086	10.21
424.446	9.72
424.806	9.67
425.166	9.75
425.527	9.3
425.887	8.7
426.247	9.01
426.607	8.51
426.967	7.92
427.327	7.39
427.687	7.61
428.047	7.54
428.407	6.93
428.767	6.75
429.127	6.98
429.487	7.08
429.847	7.45
430.207	6.88
430.566	7.22
430.926	7.37
431.286	7.24
431.645	8.2
432.005	7.42
432.365	7.43
432.724	7.28
433.084	7.6
433.443	8.47
433.803	8.04
434.162	8.26
434.521	7.96
434.881	8.25
435.24	7.83
435.599	7.39
435.958	7.51
436.318	7.87
436.677	7.28
437.036	7.56
437.395	7.42
437.754	7.69
438.113	8.1
438.472	8.33
438.831	7.77
439.19	8.19
439.549	8.48
439.908	8.71
440.266	8.78
440.625	9.27
440.984	8.97
441.343	9.23
441.701	8.94
442.06	7.97
442.418	8.04
442.777	7.87
443.136	7.81
443.494	8.12
443.852	7.54
444.211	7.63
444.569	7.9
444.928	7.87
445.286	8.35
445.644	8.52
446.002	8.31
446.361	9.31
446.719	8.79
447.077	9.28
447.435	9.28
447.793	9.13
448.151	9.32
448.509	8.74
448.867	9.33
449.225	9.13
449.583	8.47
449.94	7.99
450.298	8.1
450.656	7.95
451.014	7.85
451.371	7.94
451.729	7.56
452.087	8.13
452.444	8.67
452.802	7.9
453.159	7.53
453.517	7.91
453.874	6.88
454.232	7.45
454.589	7.16
454.946	7.44
455.304	6.87
455.661	6.68
456.018	7
456.375	7
456.732	7.53
457.09	7.52
457.447	7.4
457.804	7.73
458.161	8.28
458.518	8.35
458.875	9.12
459.231	9.91
459.588	10.34
459.945	10.82
460.302	10.79
460.659	10.52
461.015	9.69
461.372	8.93
461.729	8.37
462.085	8.19
462.442	8.08
462.798	7.66
463.155	7.65
463.511	7.34
463.868	7.18
464.224	7.32
464.58	7.33
464.937	7.78
465.293	7.49
465.649	7.83
466.005	7.73
466.362	7.97
466.718	8.2
467.074	8.54
467.43	8.39
467.786	8.32
468.142	7.58
468.498	8.15
468.854	8.21
469.21	8.26
469.565	7.96
469.921	7.81
470.277	7.83
470.633	7.99
470.988	7.8
471.344	7.96
471.7	8.14
472.055	7.87
472.411	7.53
472.766	8.14
473.122	7.97
473.477	8.17
473.832	7.75
474.188	7.53
474.543	7.53
474.898	7.54
475.254	7.31
475.609	6.93
475.964	6.67
476.319	6.86
476.674	7.1
477.029	6.17
477.384	6.35
477.739	6.26
478.094	6.18
478.449	6.21
478.804	6.06
479.159	5.61
479.513	5.81
479.868	5.61
480.223	5.93
480.578	5.94
480.932	6.01
481.287	6.09
481.641	6.58
481.996	7.05
482.35	7.55
482.705	8.6
483.059	10.88
483.414	12.89
483.768	15.05
484.122	15.2
484.477	13.76
484.831	11.82
485.185	10.08
485.539	8.51
485.893	8.16
486.247	8.23
486.601	8.53
486.955	9.04
487.309	9.73
487.663	10.15
488.017	10.1
488.371	9.55
488.725	8.69
489.078	8.11
489.432	7.42
489.786	6.86
490.14	6.91
490.493	7.17
490.847	8.03
491.2	9.11
491.554	10.28
491.907	10.6
492.261	9.77
492.614	8.94
492.967	8.28
493.321	7.75
493.674	6.94
494.027	6.62
494.38	6.46
494.734	6.38
495.087	6.51
495.44	7.03
495.793	6.97
496.146	7.67
496.499	8.19
496.852	7.75
497.205	8.1
497.558	8.19
497.91	7.79
498.263	7.78
498.616	7.75
498.969	8.09
499.321	7.82
499.674	7.7
500.027	7.82
500.379	7.92
500.732	7.65
501.084	8.19
501.436	7.34
501.789	7.75
502.141	7.49
502.494	7.92
502.846	7.59
503.198	7.8
503.55	7.71
503.902	8.22
504.255	8.08
504.607	7.79
504.959	7.74
505.311	7.81
505.663	8.01
506.015	8.21
506.367	7.83
506.718	8.26
507.07	8.09
507.422	8.38
507.774	7.69
508.125	8.38
508.477	8.47
508.829	8.42
509.18	8.76
509.532	8.81
509.883	8.76
510.235	8.58
510.586	8.98
510.938	8.47
511.289	8.57
511.64	8.47
511.992	8.7
512.343	8.7
512.694	8.79
513.045	8.55
513.396	8.51
513.747	8.01
514.098	8
514.449	8.01
514.8	8.27
515.151	8.13
515.502	8.01
515.853	8.23
516.204	7.96
516.555	8.24
516.905	8.8
517.256	9.12
517.607	9.11
517.957	9.94
518.308	10.24
518.658	10.25
519.009	10.24
519.359	9.68
519.71	9.06
520.06	8.97
520.41	8.09
520.761	7.86
521.111	7.61
521.461	7.28
521.811	6.83
522.162	6.57
522.512	6.87
522.862	6.54
523.212	6.56
523.562	6.69
523.912	6.69
524.262	6.99
524.611	7.32
524.961	7.81
525.311	8.11
525.661	8.54
526.01	8.48
526.36	8.74
526.71	8.65
527.059	9.01
527.409	9.89
527.758	11.31
528.108	12.78
528.457	14.7
528.807	15.23
529.156	14.31
529.505	12.66
529.855	11.21
530.204	9.81
530.553	9.05
530.902	8.16
531.251	8.01
531.6	7.86
531.949	7.74
532.298	8.18
532.647	8.98
532.996	9.75
533.345	10.15
533.694	10.14
534.043	9.09
534.391	8.39
534.74	7.84
535.089	7.68
535.437	7.24
535.786	7.63
536.135	8
536.483	8.52
536.832	8.75
537.18	8.49
537.528	8.15
537.877	7.96
538.225	7.48
538.573	7.28
538.921	7.31
539.27	7.32
539.618	7.97
539.966	8.5
540.314	9.16
540.662	10.9
541.01	12.24
541.358	13.63
541.706	13.53
542.054	13.01
542.402	12.23
542.749	11.57
543.097	11.54
543.445	10.84
543.792	10.62
544.14	9.88
544.488	9.35
544.835	9.08
545.183	9.11
545.53	8.84
545.878	9.18
546.225	9.77
546.572	9.92
546.92	9.88
547.267	9.78
547.614	9.75
547.961	9.29
548.308	8.97
548.655	9.06
549.002	8.88
549.349	8.87
549.696	8.68
550.043	8.76
550.39	9.1
550.737	9.78
551.084	9.19
551.431	9.6
551.777	9.66
552.124	9.97
552.471	9.99
552.817	10.76
553.164	10.69
553.51	10.66
553.857	10.81
554.203	10.58
554.55	10.85
554.896	10.89
555.242	11
555.589	10.66
555.935	10.61
556.281	10.93
556.627	11.17
556.973	11.49
557.319	10.72
557.665	10.78
558.011	11.2
558.357	11.36
558.703	11.34
559.049	10.8
559.395	11.09
559.741	11.34
560.086	11.5
560.432	11.49
560.778	12.14
561.123	11.97
561.469	12.45
561.815	12.35
562.16	12.46
562.506	12.14
562.851	11.78
563.196	12.03
563.542	12.4
563.887	12.73
564.232	12.39
564.577	13.13
564.922	13.66
565.268	13.91
565.613	13.9
565.958	15.21
566.303	15.55
566.648	15.64
566.993	15.28
567.337	14.91
567.682	14.31
568.027	14.17
568.372	14.55
568.717	14.36
569.061	14.61
569.406	14.88
569.75	14.68
570.095	15.12
570.439	15.31
570.784	16.09
571.128	16.67
571.473	16.72
571.817	17.84
572.161	18.13
572.505	18.24
572.85	18.66
573.194	18.35
573.538	18.6
573.882	18.7
574.226	18.65
574.57	19.52
574.914	19.51
575.258	19.85
575.602	20.36
575.946	20.36
576.289	20.17
576.633	20.04
576.977	19.84
577.32	20.05
577.664	19.37
578.008	19.5
578.351	19.66
578.695	20
579.038	20.16
579.382	19.55
579.725	19.76
580.068	20.05
580.411	20.15
580.755	20.52
581.098	20.66
581.441	21.36
581.784	22.24
582.127	22.14
582.47	23.08
582.813	23.08
583.156	23.77
583.499	23.84
583.842	24.08
584.185	24.01
584.527	25.01
584.87	25.15
585.213	25.75
585.556	25.8
585.898	26.32
586.241	27.25
586.583	26.91
586.926	27.79
587.268	28.12
587.61	28.71
587.953	29.7
588.295	29.91
588.637	30.21
588.98	31.09
589.322	31.45
589.664	32.55
590.006	32.74
590.348	32.93
590.69	32.77
591.032	33.36
591.374	33.11
591.716	33.61
592.058	32.67
592.399	32.67
592.741	33.58
593.083	34.43
593.424	35.07
593.766	36.7
594.108	38.1
594.449	38.63
594.791	39.85
595.132	39.75
595.474	41.43
595.815	43.76
596.156	45.23
596.497	47.07
596.839	49.93
597.18	50.82
597.521	49.56
597.862	47.8
598.203	46.15
598.544	44.37
598.885	42.8
599.226	41.97
599.567	41.25
599.908	41.78
600.249	40.74
600.589	41.3
600.93	42.22
601.271	42.85
601.611	42.96
601.952	44.58
602.292	46.02
602.633	48.29
602.973	50.08
603.314	53.36
603.654	55.32
603.995	58.63
604.335	61.79
604.675	64.12
605.015	65.86
605.355	65.46
605.695	62.6
606.036	60.95
606.376	58.74
606.715	56.9
607.055	55.58
607.395	55.83
607.735	55.55
608.075	56.54
608.415	58.51
608.754	61.09
609.094	64.22
609.434	66.59
609.773	67.25
610.113	67.23
610.452	66.51
610.792	65.71
611.131	63.06
611.471	62.82
611.81	61.77
612.149	60.73
612.488	61.07
612.828	60.67
613.167	61.38
613.506	59.99
613.845	60.34
614.184	61.27
614.523	60.33
614.862	60.92
615.201	62
615.539	60.46
615.878	61.71
616.217	62.86
616.556	64.18
616.894	64.68
617.233	66.21
617.571	67.27
617.91	68.65
618.248	68.33
618.587	69.44
618.925	69.72
619.264	69.29
619.602	70.45
619.94	69.46
620.278	69.21
620.617	69.46
620.955	70.38
621.293	71.4
621.631	69.31
621.969	70
622.307	70.01
622.645	69.01
622.983	70.17
623.32	70.86
623.658	71.15
623.996	71.83
624.334	73.1
624.671	73.81
625.009	74.65
625.346	77.03
625.684	79.33
626.021	80.48
626.359	84.07
626.696	86.5
627.033	86.88
627.371	86.59
627.708	85.18
628.045	84.23
628.382	82.13
628.719	80.23
629.056	78.79
629.394	78.31
629.73	77.85
630.067	77.27
630.404	76.33
630.741	75.09
631.078	75.83
631.415	75.4
631.751	75.28
632.088	75.9
632.425	75.01
632.761	75.73
633.098	76.71
633.434	77.93
633.771	79.93
634.107	80.64
634.443	79.33
634.78	81.83
635.116	80.25
635.452	79.79
635.788	79.55
636.124	80.41
636.46	79.9
636.797	79.55
637.133	78.42
637.468	79.72
637.804	78.09
638.14	78
638.476	77.97
638.812	78.12
639.147	78.22
639.483	76.73
639.819	77.95
640.154	77.03
640.49	77.86
640.825	78
641.161	77.16
641.496	75.89
641.832	76.97
642.167	77.89
642.502	77.15
642.837	77.32
643.172	77.85
643.508	79.17
643.843	78.5
644.178	77.76
644.513	77.31
644.848	80.23
645.183	78.64
645.517	79
645.852	79.27
646.187	79.36
646.522	80.93
646.856	82.92
647.191	80.79
647.526	82.57
647.86	80.67
648.195	82.96
648.529	81.05
648.863	82.69
649.198	82.42
649.532	82.56
649.866	82.58
650.201	82.67
650.535	82.5
650.869	82.73
651.203	83.47
651.537	83.68
651.871	83.7
652.205	83.43
652.539	81.03
652.873	82.46
653.206	79.52
653.54	79.56
653.874	78.06
654.208	77.28
654.541	75.38
654.875	76.21
655.208	76.83
655.542	76.19
655.875	76.39
656.209	76.28
656.542	76.7
656.875	78.98
657.208	79.52
657.542	80.8
657.875	82.82
658.208	85.99
658.541	88.46
658.874	92.65
659.207	97
659.54	100.55
659.873	99.33
660.206	96.84
660.538	95.37
660.871	92.51
661.204	89.66
661.536	88.33
661.869	85.44
662.202	85.5
662.534	83.11
662.867	80.03
663.199	79.56
663.531	78.14
663.864	77.84
664.196	76.72
664.528	75.67
664.86	77.23
665.193	75.51
665.525	77.58
665.857	77.57
666.189	77.41
666.521	79.15
666.853	79.56
667.184	79.66
667.516	80.73
667.848	79.96
668.18	82.19
668.511	81.95
668.843	84.06
669.175	85.04
669.506	84.58
669.838	85.33
670.169	84.42
670.5	83.51
670.832	83.98
671.163	84.37
671.494	82.97
671.826	83.58
672.157	82.43
672.488	80.84
672.819	80.22
673.15	82.33
673.481	81.32
673.812	81.1
674.143	79.27
