Data from coltest_Reflection_008.txt Node
Date: Mon Feb 02 14:07:17 EST 2015
User: jamesohanlon
Spectrometer: JAZA0776
Autoset integration time: false
Trigger mode: 0
Integration Time (sec): 1.000000E-1
Scans to average: 10
Electric dark correction enabled: true
Nonlinearity correction enabled: false
Boxcar width: 10
Stray light correction enabled: false
XAxis mode: Wavelengths
Stop averaging: false
Number of Pixels in Spectrum: 2048
>>>>>Begin Spectral Data<<<<<
190.472	-4497.65
190.851	-2254.98
191.23	-1102.02
191.609	-919.91
191.988	-530.84
192.366	-423.93
192.745	-155.54
193.124	92.46
193.503	255.69
193.882	259.68
194.26	259.45
194.639	241.38
195.018	228.96
195.397	190.14
195.775	154.54
196.154	146.67
196.532	124.5
196.911	109.53
197.29	89.92
197.668	61.7
198.047	77.33
198.425	67.34
198.803	57.96
199.182	43.6
199.56	49.83
199.939	52.35
200.317	50.63
200.695	55.63
201.074	53.57
201.452	49.88
201.83	49.67
202.208	33.99
202.587	33.6
202.965	31.45
203.343	53.98
203.721	51.71
204.099	48.54
204.477	43.44
204.855	35.57
205.233	34.68
205.611	24.38
205.989	22.28
206.367	21.54
206.745	21.55
207.123	18.06
207.501	12.42
207.879	18.7
208.257	24.52
208.635	19.06
209.012	19.37
209.39	11.91
209.768	20.83
210.146	14.89
210.523	2.77
210.901	-0.46
211.278	-9.4
211.656	-13.71
212.034	-20.62
212.411	-24.91
212.789	-27.93
213.166	-21.18
213.544	-14.26
213.921	-27.14
214.299	-15.99
214.676	7.49
215.053	7.45
215.431	21.43
215.808	23.23
216.185	25.09
216.563	25.21
216.94	24.07
217.317	18.06
217.694	25.19
218.072	32.87
218.449	34.93
218.826	26.64
219.203	24.94
219.58	24.19
219.957	25.51
220.334	27.56
220.711	29.78
221.088	31.73
221.465	32.45
221.842	23.54
222.219	23.29
222.596	21.86
222.973	22.63
223.349	23.7
223.726	20.96
224.103	20.37
224.48	16.94
224.856	19.49
225.233	17.8
225.61	19.99
225.986	23.33
226.363	22.82
226.74	24.98
227.116	28.48
227.493	32.74
227.869	40.61
228.246	45.75
228.622	48.86
228.999	50.19
229.375	52.72
229.751	53.07
230.128	54.32
230.504	54.36
230.88	51.87
231.257	48.79
231.633	43.86
232.009	39.54
232.385	35.47
232.761	33.86
233.138	32.25
233.514	31.07
233.89	30.09
234.266	28.31
234.642	27.64
235.018	25.67
235.394	23.52
235.77	22.77
236.146	22.07
236.522	21.69
236.898	21.2
237.274	21.42
237.649	20.75
238.025	20.57
238.401	20.12
238.777	19.87
239.152	19.45
239.528	20.06
239.904	21
240.279	21.36
240.655	22.84
241.031	24.11
241.406	24.94
241.782	26.04
242.157	26.06
242.533	26.37
242.908	26.66
243.284	26.47
243.659	25.94
244.034	25.27
244.41	25.02
244.785	24.69
245.16	25.37
245.536	26.1
245.911	27.39
246.286	29.01
246.661	30.57
247.037	31.43
247.412	32.43
247.787	32.9
248.162	32.49
248.537	31.39
248.912	30.27
249.287	28.02
249.662	25.8
250.037	24.08
250.412	22.8
250.787	21.48
251.162	20.39
251.537	19.28
251.911	18.11
252.286	17.04
252.661	16.32
253.036	15.38
253.41	14.84
253.785	14.3
254.16	13.65
254.534	13.01
254.909	12.67
255.284	12.58
255.658	12.98
256.033	13.44
256.407	14.13
256.782	14.99
257.156	16.24
257.53	17.71
257.905	19.57
258.279	21.74
258.654	24.05
259.028	25.72
259.402	26.52
259.776	27.01
260.151	27.14
260.525	27.3
260.899	26.78
261.273	25.95
261.647	24.86
262.021	23.39
262.395	21.53
262.769	19.32
263.143	17.46
263.517	16.3
263.891	15.39
264.265	15.15
264.639	14.76
265.013	14.79
265.387	14.8
265.761	14.87
266.135	14.9
266.508	15.08
266.882	15.39
267.256	16.2
267.629	16.74
268.003	17.27
268.377	17.46
268.75	17.89
269.124	18.34
269.497	18.88
269.871	19.43
270.244	19.88
270.618	20.32
270.991	20.59
271.365	20.59
271.738	20.74
272.111	20.85
272.485	20.62
272.858	20.45
273.231	19.98
273.604	19.28
273.978	18.52
274.351	18.09
274.724	17.65
275.097	17.34
275.47	17.08
275.843	17.04
276.216	16.97
276.589	17.13
276.962	16.96
277.335	16.87
277.708	16.73
278.081	16.67
278.454	16.47
278.827	16.39
279.2	16.5
279.572	16.7
279.945	16.84
280.318	17.18
280.691	17.43
281.063	17.84
281.436	18.02
281.808	18.19
282.181	18.16
282.554	18.17
282.926	18.2
283.299	18.17
283.671	18.21
284.044	18.31
284.416	18.46
284.788	18.74
285.161	18.61
285.533	18.58
285.905	18.74
286.278	18.7
286.65	18.42
287.022	18.07
287.394	17.81
287.766	17.56
288.139	17.1
288.511	16.85
288.883	16.61
289.255	16.47
289.627	16.4
289.999	16.12
290.371	15.98
290.743	15.88
291.115	15.75
291.486	15.41
291.858	15.18
292.23	15.38
292.602	15.32
292.974	15.23
293.345	15.34
293.717	15.44
294.089	15.7
294.46	16.02
294.832	16.63
295.204	17.23
295.575	17.96
295.947	18.43
296.318	18.51
296.69	18.57
297.061	18.53
297.433	18.49
297.804	18.29
298.175	18.01
298.547	17.85
298.918	17.35
299.289	16.8
299.66	16.19
300.032	15.73
300.403	15.4
300.774	15.04
301.145	14.54
301.516	14.14
301.887	14
302.258	13.88
302.629	13.56
303	13.39
303.371	13.32
303.742	13.31
304.113	13.12
304.484	13.05
304.855	13.07
305.226	13.22
305.596	13.4
305.967	13.59
306.338	13.72
306.708	14.02
307.079	14.23
307.45	14.45
307.82	14.54
308.191	14.81
308.561	14.94
308.932	15.08
309.302	15.28
309.673	15.57
310.043	15.67
310.414	15.68
310.784	15.52
311.154	15.41
311.525	15.31
311.895	15.08
312.265	15.09
312.635	14.97
313.006	14.85
313.376	14.85
313.746	14.63
314.116	14.43
314.486	14.43
314.856	14.28
315.226	14.14
315.596	13.78
315.966	13.65
316.336	13.31
316.706	13.13
317.076	12.9
317.445	12.65
317.815	12.54
318.185	12.43
318.555	12.23
318.924	12.09
319.294	11.89
319.664	11.76
320.033	11.7
320.403	11.49
320.772	11.33
321.142	11.41
321.511	11.39
321.881	11.44
322.25	11.68
322.62	11.67
322.989	12
323.358	12.24
323.728	12.6
324.097	12.69
324.466	12.99
324.836	13.05
325.205	12.88
325.574	12.67
325.943	12.54
326.312	12.2
326.681	12.01
327.05	11.61
327.419	11.5
327.788	11.15
328.157	11.28
328.526	11.04
328.895	10.89
329.264	10.88
329.633	11
330.001	10.96
330.37	11.01
330.739	11.19
331.108	11.3
331.476	11.61
331.845	11.92
332.214	11.8
332.582	11.94
332.951	11.94
333.319	12.13
333.688	12.16
334.056	12.2
334.425	12.12
334.793	12.01
335.161	12.1
335.53	11.79
335.898	11.58
336.266	11.49
336.635	11.41
337.003	11.37
337.371	11.18
337.739	11.08
338.107	10.94
338.475	10.95
338.843	11.01
339.212	10.83
339.58	10.93
339.947	10.94
340.315	10.91
340.683	10.88
341.051	10.99
341.419	10.86
341.787	10.83
342.155	10.91
342.522	11.07
342.89	11.08
343.258	11.14
343.625	11.14
343.993	11.25
344.361	11.31
344.728	11.28
345.096	11.2
345.463	11.17
345.831	11.04
346.198	10.93
346.566	10.68
346.933	10.46
347.3	10.34
347.668	10.19
348.035	9.92
348.402	9.79
348.769	9.76
349.137	9.58
349.504	9.51
349.871	9.42
350.238	9.28
350.605	9.1
350.972	8.99
351.339	8.85
351.706	8.87
352.073	9.04
352.44	9.08
352.807	9.13
353.174	9.24
353.54	9.26
353.907	9.25
354.274	9.34
354.641	9.36
355.007	9.41
355.374	9.65
355.741	9.73
356.107	9.79
356.474	9.99
356.84	10.05
357.207	10.1
357.573	10.17
357.94	10.26
358.306	10.42
358.673	10.59
359.039	10.81
359.405	10.89
359.771	11.12
360.138	11.46
360.504	11.64
360.87	11.74
361.236	11.85
361.602	11.87
361.968	11.82
362.335	11.65
362.701	11.5
363.067	11.19
363.432	10.86
363.798	10.38
364.164	9.9
364.53	9.54
364.896	9.39
365.262	9.23
365.628	9.14
365.993	9.05
366.359	8.93
366.725	8.87
367.09	8.82
367.456	8.7
367.821	8.73
368.187	8.7
368.553	8.7
368.918	8.81
369.283	8.79
369.649	8.84
370.014	9.02
370.38	9.09
370.745	9.17
371.11	9.28
371.475	9.33
371.841	9.23
372.206	9.25
372.571	9.15
372.936	9.05
373.301	9.05
373.666	8.94
374.031	8.92
374.396	9.03
374.761	9.18
375.126	9.34
375.491	9.52
375.856	9.81
376.221	9.96
376.586	9.99
376.95	10.01
377.315	9.98
377.68	10
378.044	10
378.409	9.75
378.774	9.58
379.138	9.37
379.503	9.24
379.867	8.88
380.232	8.64
380.596	8.61
380.961	8.51
381.325	8.52
381.689	8.48
382.054	8.49
382.418	8.69
382.782	8.65
383.146	8.63
383.51	8.59
383.875	8.68
384.239	8.78
384.603	8.85
384.967	8.93
385.331	9.03
385.695	9.1
386.059	9.04
386.423	8.98
386.786	8.94
387.15	8.95
387.514	8.85
387.878	8.8
388.242	8.73
388.605	8.73
388.969	8.67
389.333	8.69
389.696	8.75
390.06	8.87
390.423	8.97
390.787	9.14
391.15	9.2
391.514	9.33
391.877	9.49
392.241	9.63
392.604	9.77
392.967	9.89
393.331	9.83
393.694	9.77
394.057	9.69
394.42	9.6
394.783	9.44
395.146	9.37
395.51	9.28
395.873	9.15
396.236	8.99
396.599	8.84
396.962	8.65
397.324	8.57
397.687	8.44
398.05	8.31
398.413	8.3
398.776	8.22
399.138	8.14
399.501	8.16
399.864	8.13
400.227	8.14
400.589	8.07
400.952	8.09
401.314	8.12
401.677	8.21
402.039	8.48
402.402	8.63
402.764	8.71
403.126	8.93
403.489	8.97
403.851	9.12
404.213	9.12
404.576	9.12
404.938	9.14
405.3	9.12
405.662	9.09
406.024	8.89
406.386	8.68
406.748	8.66
407.11	8.46
407.472	8.38
407.834	8.3
408.196	8.28
408.558	8.31
408.92	8.27
409.282	8.24
409.643	8.19
410.005	8.14
410.367	8.09
410.728	8.03
411.09	8.04
411.452	7.99
411.813	7.89
412.175	7.78
412.536	7.62
412.898	7.47
413.259	7.39
413.62	7.34
413.982	7.26
414.343	7.21
414.704	7.22
415.066	7.16
415.427	7.23
415.788	7.32
416.149	7.4
416.51	7.56
416.871	7.63
417.232	7.71
417.593	7.81
417.954	7.94
418.315	8.16
418.676	8.33
419.037	8.63
419.398	8.85
419.759	9.09
420.119	9.2
420.48	9.32
420.841	9.43
421.201	9.52
421.562	9.62
421.923	9.73
422.283	9.82
422.644	9.87
423.004	9.83
423.365	9.76
423.725	9.65
424.086	9.66
424.446	9.6
424.806	9.51
425.166	9.38
425.527	9.23
425.887	9.06
426.247	8.8
426.607	8.55
426.967	8.32
427.327	8.09
427.687	7.86
428.047	7.72
428.407	7.58
428.767	7.49
429.127	7.47
429.487	7.41
429.847	7.45
430.207	7.45
430.566	7.46
430.926	7.46
431.286	7.53
431.645	7.65
432.005	7.7
432.365	7.78
432.724	7.91
433.084	7.97
433.443	7.94
433.803	7.92
434.162	7.95
434.521	7.96
434.881	8
435.24	8
435.599	8.01
435.958	7.96
436.318	7.96
436.677	7.92
437.036	7.94
437.395	8.07
437.754	8.1
438.113	8.19
438.472	8.31
438.831	8.44
439.19	8.59
439.549	8.7
439.908	8.84
440.266	8.85
440.625	8.82
440.984	8.81
441.343	8.74
441.701	8.71
442.06	8.61
442.418	8.49
442.777	8.34
443.136	8.26
443.494	8.17
443.852	8.14
444.211	8.17
444.569	8.31
444.928	8.41
445.286	8.52
445.644	8.63
446.002	8.78
446.361	8.87
446.719	8.95
447.077	8.97
447.435	9.02
447.793	9.02
448.151	8.96
448.509	8.83
448.867	8.7
449.225	8.57
449.583	8.4
449.94	8.27
450.298	8.22
450.656	8.13
451.014	8.09
451.371	8.01
451.729	7.92
452.087	7.85
452.444	7.81
452.802	7.7
453.159	7.6
453.517	7.52
453.874	7.44
454.232	7.37
454.589	7.31
454.946	7.29
455.304	7.28
455.661	7.31
456.018	7.38
456.375	7.41
456.732	7.55
457.09	7.73
457.447	8.02
457.804	8.32
458.161	8.68
458.518	9.05
458.875	9.3
459.231	9.5
459.588	9.61
459.945	9.65
460.302	9.72
460.659	9.7
461.015	9.63
461.372	9.4
461.729	9.13
462.085	8.79
462.442	8.48
462.798	8.19
463.155	7.99
463.511	7.83
463.868	7.76
464.224	7.72
464.58	7.74
464.937	7.74
465.293	7.79
465.649	7.88
466.005	7.94
466.362	7.98
466.718	8.09
467.074	8.14
467.43	8.26
467.786	8.3
468.142	8.26
468.498	8.24
468.854	8.21
469.21	8.14
469.565	7.99
469.921	7.9
470.277	7.78
470.633	7.68
470.988	7.69
471.344	7.69
471.7	7.76
472.055	7.79
472.411	7.79
472.766	7.79
473.122	7.77
473.477	7.81
473.832	7.78
474.188	7.78
474.543	7.81
474.898	7.75
475.254	7.65
475.609	7.47
475.964	7.32
476.319	7.07
476.674	6.77
477.029	6.48
477.384	6.28
477.739	6.16
478.094	6.1
478.449	6.06
478.804	6.04
479.159	6.04
479.513	6.08
479.868	6.1
480.223	6.16
480.578	6.27
480.932	6.53
481.287	6.95
481.641	7.61
481.996	8.48
482.35	9.36
482.705	10.11
483.059	10.63
483.414	10.95
483.768	11.11
484.122	11.13
484.477	11.08
484.831	10.96
485.185	10.78
485.539	10.5
485.893	10.09
486.247	9.7
486.601	9.35
486.955	9.1
487.309	8.93
487.663	8.79
488.017	8.69
488.371	8.62
488.725	8.52
489.078	8.4
489.432	8.35
489.786	8.29
490.14	8.24
490.493	8.25
490.847	8.33
491.2	8.46
491.554	8.62
491.907	8.75
492.261	8.78
492.614	8.72
492.967	8.55
493.321	8.22
493.674	7.86
494.027	7.49
494.38	7.24
494.734	7.14
495.087	7.17
495.44	7.23
495.793	7.32
496.146	7.41
496.499	7.48
496.852	7.58
497.205	7.69
497.558	7.76
497.91	7.84
498.263	7.92
498.616	7.98
498.969	8.03
499.321	8.09
499.674	8.12
500.027	8.15
500.379	8.17
500.732	8.18
501.084	8.1
501.436	8.05
501.789	8.02
502.141	7.99
502.494	7.94
502.846	7.94
503.198	7.95
503.55	7.98
503.902	8.01
504.255	8.06
504.607	8.05
504.959	8.09
505.311	8.09
505.663	8.11
506.015	8.11
506.367	8.16
506.718	8.18
507.07	8.22
507.422	8.26
507.774	8.3
508.125	8.34
508.477	8.46
508.829	8.53
509.18	8.61
509.532	8.65
509.883	8.73
510.235	8.74
510.586	8.72
510.938	8.74
511.289	8.72
511.64	8.68
511.992	8.6
512.343	8.51
512.694	8.42
513.045	8.31
513.396	8.26
513.747	8.2
514.098	8.17
514.449	8.17
514.8	8.14
515.151	8.16
515.502	8.19
515.853	8.32
516.204	8.49
516.555	8.71
516.905	8.98
517.256	9.16
517.607	9.33
517.957	9.42
518.308	9.43
518.658	9.38
519.009	9.27
519.359	9.16
519.71	8.99
520.06	8.78
520.41	8.5
520.761	8.16
521.111	7.83
521.461	7.46
521.811	7.15
522.162	6.93
522.512	6.82
522.862	6.8
523.212	6.85
523.562	6.94
523.912	7.11
524.262	7.32
524.611	7.56
524.961	7.75
525.311	8.01
525.661	8.31
526.01	8.71
526.36	9.24
526.71	9.88
527.059	10.53
527.409	11.08
527.758	11.45
528.108	11.67
528.457	11.79
528.807	11.82
529.156	11.73
529.505	11.54
529.855	11.21
530.204	10.72
530.553	10.14
530.902	9.59
531.251	9.21
531.6	9.01
531.949	8.93
532.298	8.86
532.647	8.85
532.996	8.81
533.345	8.79
533.694	8.74
534.043	8.67
534.391	8.57
534.74	8.45
535.089	8.31
535.437	8.17
535.786	8.06
536.135	8.03
536.483	8.03
536.832	8.03
537.18	8
537.528	8.02
537.877	8.04
538.225	8.09
538.573	8.15
538.921	8.3
539.27	8.63
539.618	9.02
539.966	9.52
540.314	10.02
540.662	10.52
541.01	10.98
541.358	11.35
541.706	11.68
542.054	11.87
542.402	11.93
542.749	11.79
543.097	11.5
543.445	11.11
543.792	10.7
544.14	10.37
544.488	10.12
544.835	9.95
545.183	9.81
545.53	9.66
545.878	9.55
546.225	9.42
546.572	9.36
546.92	9.29
547.267	9.26
547.614	9.25
547.961	9.22
548.308	9.22
548.655	9.21
549.002	9.24
549.349	9.22
549.696	9.21
550.043	9.27
550.39	9.34
550.737	9.47
551.084	9.63
551.431	9.83
551.777	10.02
552.124	10.16
552.471	10.29
552.817	10.41
553.164	10.56
553.51	10.7
553.857	10.8
554.203	10.92
554.55	10.97
554.896	11.03
555.242	11.04
555.589	11.02
555.935	11.05
556.281	11.05
556.627	11.07
556.973	11.08
557.319	11.07
557.665	11.14
558.011	11.18
558.357	11.22
558.703	11.28
559.049	11.38
559.395	11.43
559.741	11.55
560.086	11.64
560.432	11.76
560.778	11.86
561.123	12.02
561.469	12.1
561.815	12.18
562.16	12.35
562.506	12.38
562.851	12.41
563.196	12.6
563.542	12.7
563.887	12.88
564.232	13.12
564.577	13.4
564.922	13.67
565.268	13.93
565.613	14.11
565.958	14.23
566.303	14.43
566.648	14.52
566.993	14.59
567.337	14.68
567.682	14.76
568.027	14.77
568.372	14.77
568.717	14.75
569.061	14.8
569.406	14.98
569.75	15.18
570.095	15.46
570.439	15.85
570.784	16.17
571.128	16.51
571.473	16.8
571.817	17.1
572.161	17.35
572.505	17.71
572.85	18.02
573.194	18.33
573.538	18.66
573.882	18.88
574.226	19.11
574.57	19.29
574.914	19.43
575.258	19.55
575.602	19.66
575.946	19.79
576.289	19.83
576.633	19.83
576.977	19.86
577.32	19.85
577.664	19.87
578.008	19.86
578.351	19.89
578.695	19.89
579.038	20.03
579.382	20.22
579.725	20.42
580.068	20.65
580.411	20.89
580.755	21.14
581.098	21.37
581.441	21.7
581.784	22.06
582.127	22.4
582.47	22.89
582.813	23.28
583.156	23.63
583.499	24.02
583.842	24.34
584.185	24.7
584.527	25.1
584.87	25.52
585.213	25.87
585.556	26.29
585.898	26.74
586.241	27.14
586.583	27.56
586.926	28.05
587.268	28.54
587.61	29.1
587.953	29.69
588.295	30.25
588.637	30.81
588.98	31.32
589.322	31.7
589.664	32
590.006	32.28
590.348	32.49
590.69	32.6
591.032	32.77
591.374	33
591.716	33.29
592.058	33.69
592.399	34.17
592.741	34.7
593.083	35.37
593.424	36.12
593.766	36.82
594.108	37.73
594.449	38.86
594.791	40.25
595.132	41.74
595.474	43.15
595.815	44.33
596.156	45.27
596.497	45.92
596.839	46.33
597.18	46.45
597.521	46.52
597.862	46.24
598.203	45.8
598.544	45.01
598.885	44.15
599.226	43.35
599.567	42.72
599.908	42.32
600.249	42.25
600.589	42.41
600.93	43.05
601.271	43.84
601.611	45.05
601.952	46.33
602.292	47.81
602.633	49.48
602.973	51.38
603.314	53.37
603.654	55.25
603.995	57.08
604.335	58.52
604.675	59.6
605.015	60.28
605.355	60.53
605.695	60.57
606.036	60.25
606.376	59.75
606.715	59.08
607.055	58.6
607.395	58.56
607.735	58.8
608.075	59.45
608.415	60.17
608.754	60.89
609.094	61.72
609.434	62.37
609.773	63.06
610.113	63.59
610.452	63.99
610.792	64.11
611.131	63.81
611.471	63.38
611.81	62.9
612.149	62.47
612.488	62.14
612.828	61.75
613.167	61.47
613.506	61.32
613.845	61.23
614.184	61.22
614.523	61.21
614.862	61.46
615.201	61.75
615.539	62.28
615.878	62.9
616.217	63.67
616.556	64.48
616.894	65.5
617.233	66.29
617.571	67.11
617.91	67.88
618.248	68.68
618.587	69.24
618.925	69.57
619.264	69.8
619.602	69.93
619.94	69.91
620.278	70.07
620.617	69.98
620.955	69.99
621.293	70.03
621.631	70
621.969	69.95
622.307	70.05
622.645	70.43
622.983	70.67
623.32	71.14
623.658	71.75
623.996	72.44
624.334	73.51
624.671	74.81
625.009	76.24
625.346	77.73
625.684	79.23
626.021	80.59
626.359	81.52
626.696	82.34
627.033	82.69
627.371	83
627.708	83.01
628.045	82.78
628.382	82.22
628.719	81.37
629.056	80.48
629.394	79.61
629.73	78.64
630.067	77.87
630.404	77.13
630.741	76.69
631.078	76.29
631.415	76.02
631.751	75.93
632.088	76.04
632.425	76.39
632.761	76.71
633.098	77.19
633.434	77.72
633.771	78.18
634.107	78.69
634.443	79.19
634.78	79.63
635.116	79.89
635.452	80.09
635.788	80.07
636.124	79.85
636.46	79.56
636.797	79.29
637.133	79.02
637.468	78.88
637.804	78.68
638.14	78.58
638.476	78.35
638.812	78.07
639.147	77.7
639.483	77.41
639.819	77.32
640.154	77.45
640.49	77.33
640.825	77.38
641.161	77.49
641.496	77.56
641.832	77.62
642.167	77.68
642.502	77.8
642.837	77.95
643.172	77.9
643.508	77.93
643.843	77.96
644.178	78.21
644.513	78.52
644.848	78.85
645.183	79.14
645.517	79.23
645.852	79.72
646.187	80.18
646.522	80.52
646.856	81
647.191	81.29
647.526	81.65
647.86	81.86
648.195	81.94
648.529	82.07
648.863	82.35
649.198	82.65
649.532	82.9
649.866	82.97
650.201	83.19
650.535	83.27
650.869	83.35
651.203	83.35
651.537	83.25
651.871	82.94
652.205	82.4
652.539	81.62
652.873	80.76
653.206	79.92
653.54	79.33
653.874	78.6
654.208	78.08
654.541	77.63
654.875	77.33
655.208	77.18
655.542	77.18
655.875	77.33
656.209	77.78
656.542	78.63
656.875	79.81
657.208	81.38
657.542	83.21
657.875	85.16
658.208	87.24
658.541	89.06
658.874	90.74
659.207	92.04
659.54	93.18
659.873	93.78
660.206	93.88
660.538	93.26
660.871	92.23
661.204	90.71
661.536	88.97
661.869	87.1
662.202	85.39
662.534	83.64
662.867	82.21
663.199	80.82
663.531	79.68
663.864	78.68
664.196	78.14
664.528	77.67
664.86	77.49
665.193	77.41
665.525	77.48
665.857	77.61
666.189	78.13
666.521	78.83
666.853	79.41
667.184	80.21
667.516	81.21
667.848	81.88
668.18	82.42
668.511	82.98
668.843	83.44
669.175	83.68
669.506	84.18
669.838	84.39
670.169	84.13
670.5	84.21
670.832	84
671.163	83.48
671.494	83.29
671.826	82.91
672.157	82.36
672.488	81.86
672.819	81.51
673.15	80.99
673.481	80.48
673.812	80.15
674.143	79.75
