Data from coltest_Reflection_011.txt Node
Date: Mon Feb 02 14:09:24 EST 2015
User: jamesohanlon
Spectrometer: JAZA0776
Autoset integration time: false
Trigger mode: 0
Integration Time (sec): 1.000000E-1
Scans to average: 10
Electric dark correction enabled: true
Nonlinearity correction enabled: false
Boxcar width: 10
Stray light correction enabled: false
XAxis mode: Wavelengths
Stop averaging: false
Number of Pixels in Spectrum: 2048
>>>>>Begin Spectral Data<<<<<
190.472	84.4
190.851	83.51
191.23	81.03
191.609	75.42
191.988	80.8
192.366	82.7
192.745	93.66
193.124	173.33
193.503	82.03
193.882	92.91
194.26	98.15
194.639	84.05
195.018	85.23
195.397	77.31
195.775	72.04
196.154	69.84
196.532	70.22
196.911	71.99
197.29	74.27
197.668	72.6
198.047	61.54
198.425	58.11
198.803	59.48
199.182	49.7
199.56	53.39
199.939	37.21
200.317	10.14
200.695	2.04
201.074	-9.17
201.452	-27.17
201.83	-42.37
202.208	-20.05
202.587	-34.75
202.965	-44.36
203.343	-25.08
203.721	-31.81
204.099	-15.75
204.477	-0.34
204.855	4.42
205.233	4.28
205.611	12.89
205.989	20.83
206.367	17.41
206.745	24.34
207.123	34.32
207.501	31.31
207.879	49.5
208.257	37.77
208.635	29.08
209.012	27.4
209.39	35.57
209.768	26.47
210.146	16.31
210.523	13.24
210.901	9.77
211.278	6.02
211.656	12.35
212.034	4.54
212.411	6.68
212.789	9.45
213.166	14.43
213.544	10.13
213.921	12.2
214.299	19.28
214.676	25.43
215.053	32.2
215.431	40.33
215.808	35.2
216.185	35.39
216.563	34.99
216.94	31.04
217.317	28.1
217.694	31.88
218.072	31.59
218.449	26.53
218.826	22.47
219.203	16.71
219.58	12.09
219.957	10.48
220.334	9.63
220.711	13.28
221.088	15.05
221.465	19.91
221.842	14.54
222.219	16.55
222.596	20.95
222.973	21.01
223.349	19.21
223.726	19.05
224.103	20.43
224.48	22.21
224.856	21.69
225.233	19.64
225.61	15.06
225.986	15.15
226.363	17.9
226.74	19.63
227.116	20.94
227.493	21.37
227.869	22.97
228.246	23.34
228.622	23.33
228.999	24.14
229.375	24.65
229.751	25.46
230.128	26.17
230.504	26.18
230.88	25.65
231.257	24.47
231.633	23.29
232.009	22.93
232.385	22.7
232.761	21.8
233.138	21.22
233.514	21.16
233.89	20.83
234.266	20.55
234.642	18.99
235.018	18.21
235.394	18.88
235.77	19.93
236.146	18.85
236.522	17.63
236.898	17.46
237.274	18.04
237.649	18.36
238.025	17.9
238.401	17.91
238.777	18.39
239.152	18.74
239.528	18.34
239.904	18.33
240.279	18.21
240.655	18.32
241.031	18.72
241.406	18.42
241.782	17.89
242.157	17.78
242.533	17.63
242.908	17.84
243.284	17.66
243.659	17.7
244.034	17.48
244.41	17.33
244.785	17.24
245.16	16.8
245.536	16.59
245.911	16.6
246.286	16.59
246.661	16.56
247.037	16.47
247.412	16.44
247.787	16.3
248.162	16.22
248.537	16.1
248.912	15.96
249.287	15.91
249.662	15.74
250.037	15.65
250.412	15.5
250.787	15.29
251.162	15.05
251.537	14.7
251.911	14.66
252.286	14.61
252.661	14.7
253.036	14.83
253.41	14.71
253.785	14.54
254.16	14.2
254.534	14.17
254.909	14.27
255.284	14.04
255.658	14.2
256.033	14.04
256.407	14.05
256.782	13.74
257.156	13.87
257.53	13.93
257.905	13.91
258.279	13.99
258.654	14
259.028	13.91
259.402	13.83
259.776	13.86
260.151	13.71
260.525	13.66
260.899	13.61
261.273	13.44
261.647	13.36
262.021	13.36
262.395	13.47
262.769	13.23
263.143	13.26
263.517	13.27
263.891	13.22
264.265	13.43
264.639	13.63
265.013	13.66
265.387	13.63
265.761	13.59
266.135	13.54
266.508	13.47
266.882	13.78
267.256	13.69
267.629	13.78
268.003	13.68
268.377	13.74
268.75	13.64
269.124	13.63
269.497	13.67
269.871	13.66
270.244	13.59
270.618	13.37
270.991	13.28
271.365	13.28
271.738	13.22
272.111	13.17
272.485	13.15
272.858	13.24
273.231	13.29
273.604	13.17
273.978	13.2
274.351	13.11
274.724	13.34
275.097	13.29
275.47	13.26
275.843	13.37
276.216	13.6
276.589	13.6
276.962	13.35
277.335	13.33
277.708	13.43
278.081	13.3
278.454	13.52
278.827	13.52
279.2	13.43
279.572	13.59
279.945	13.48
280.318	13.38
280.691	13.37
281.063	13.44
281.436	13.44
281.808	13.41
282.181	13.42
282.554	13.37
282.926	13.28
283.299	13.32
283.671	13.15
284.044	13.14
284.416	13.1
284.788	12.97
285.161	12.96
285.533	13
285.905	13.04
286.278	13.04
286.65	12.96
287.022	12.95
287.394	12.93
287.766	12.85
288.139	12.75
288.511	12.68
288.883	12.64
289.255	12.54
289.627	12.39
289.999	12.32
290.371	12.4
290.743	12.34
291.115	12.33
291.486	12.2
291.858	12.23
292.23	12.26
292.602	12.31
292.974	12.31
293.345	12.28
293.717	12.26
294.089	12.22
294.46	12.12
294.832	12.06
295.204	11.94
295.575	11.93
295.947	11.81
296.318	11.72
296.69	11.65
297.061	11.65
297.433	11.67
297.804	11.67
298.175	11.62
298.547	11.57
298.918	11.55
299.289	11.53
299.66	11.53
300.032	11.54
300.403	11.55
300.774	11.55
301.145	11.58
301.516	11.5
301.887	11.45
302.258	11.45
302.629	11.43
303	11.42
303.371	11.57
303.742	11.59
304.113	11.65
304.484	11.66
304.855	11.55
305.226	11.29
305.596	11.31
305.967	11.31
306.338	11.27
306.708	11.31
307.079	11.19
307.45	11.02
307.82	11.02
308.191	10.98
308.561	10.88
308.932	10.94
309.302	11.02
309.673	11.01
310.043	11.01
310.414	10.93
310.784	10.71
311.154	10.86
311.525	10.84
311.895	10.76
312.265	10.81
312.635	10.77
313.006	10.73
313.376	10.72
313.746	10.67
314.116	10.58
314.486	10.59
314.856	10.53
315.226	10.39
315.596	10.51
315.966	10.48
316.336	10.34
316.706	10.33
317.076	10.25
317.445	10.3
317.815	10.22
318.185	10.08
318.555	9.93
318.924	9.85
319.294	9.86
319.664	9.65
320.033	9.54
320.403	9.54
320.772	9.4
321.142	9.39
321.511	9.15
321.881	9.1
322.25	9.22
322.62	9.22
322.989	9.26
323.358	9.22
323.728	9.17
324.097	9.15
324.466	9.22
324.836	9.17
325.205	9.15
325.574	9.17
325.943	9.22
326.312	9.29
326.681	9.3
327.05	9.29
327.419	9.4
327.788	9.42
328.157	9.59
328.526	9.53
328.895	9.65
329.264	9.61
329.633	9.48
330.001	9.44
330.37	9.33
330.739	9.3
331.108	9.29
331.476	9.28
331.845	9.29
332.214	9.08
332.582	8.97
332.951	8.86
333.319	8.76
333.688	8.84
334.056	8.79
334.425	8.68
334.793	8.7
335.161	8.71
335.53	8.63
335.898	8.67
336.266	8.69
336.635	8.81
337.003	8.84
337.371	8.84
337.739	8.91
338.107	8.95
338.475	9
338.843	9.06
339.212	8.95
339.58	8.77
339.947	8.66
340.315	8.61
340.683	8.57
341.051	8.63
341.419	8.6
341.787	8.46
342.155	8.45
342.522	8.51
342.89	8.41
343.258	8.38
343.625	8.43
343.993	8.46
344.361	8.62
344.728	8.65
345.096	8.67
345.463	8.66
345.831	8.66
346.198	8.59
346.566	8.56
346.933	8.63
347.3	8.71
347.668	8.72
348.035	8.7
348.402	8.6
348.769	8.5
349.137	8.41
349.504	8.43
349.871	8.4
350.238	8.39
350.605	8.28
350.972	8.24
351.339	8.2
351.706	8.22
352.073	8.26
352.44	8.19
352.807	8.16
353.174	8.22
353.54	8.19
353.907	8.19
354.274	8.28
354.641	8.33
355.007	8.35
355.374	8.34
355.741	8.29
356.107	8.24
356.474	8.3
356.84	8.32
357.207	8.24
357.573	8.23
357.94	8.18
358.306	8.21
358.673	8.19
359.039	8.17
359.405	8.15
359.771	8.14
360.138	8.1
360.504	8.07
360.87	8.15
361.236	8.14
361.602	8.21
361.968	8.22
362.335	8.26
362.701	8.36
363.067	8.34
363.432	8.32
363.798	8.31
364.164	8.46
364.53	8.48
364.896	8.52
365.262	8.58
365.628	8.45
365.993	8.52
366.359	8.45
366.725	8.39
367.09	8.38
367.456	8.34
367.821	8.44
368.187	8.37
368.553	8.4
368.918	8.38
369.283	8.27
369.649	8.26
370.014	8.25
370.38	8.23
370.745	8.11
371.11	8.16
371.475	8.23
371.841	8.16
372.206	8.13
372.571	8.09
372.936	8.03
373.301	8.06
373.666	8.05
374.031	8.06
374.396	8.13
374.761	8.19
375.126	8.12
375.491	8.07
375.856	8.04
376.221	8.07
376.586	8.04
376.95	7.97
377.315	7.98
377.68	8.06
378.044	8.06
378.409	7.93
378.774	7.96
379.138	8.06
379.503	8.14
379.867	8.08
380.232	7.99
380.596	7.99
380.961	8.03
381.325	7.96
381.689	7.89
382.054	7.92
382.418	8
382.782	7.96
383.146	7.89
383.51	7.87
383.875	7.89
384.239	7.95
384.603	8.03
384.967	7.99
385.331	7.98
385.695	8.01
386.059	8.02
386.423	8.05
386.786	8.05
387.15	8.1
387.514	8.1
387.878	8.13
388.242	8.13
388.605	8.12
388.969	8.19
389.333	8.18
389.696	8.1
390.06	8.04
390.423	8.02
390.787	8.03
391.15	7.94
391.514	7.97
391.877	8
392.241	7.98
392.604	7.94
392.967	7.82
393.331	7.83
393.694	7.88
394.057	7.87
394.42	7.86
394.783	7.78
395.146	7.85
395.51	7.84
395.873	7.87
396.236	7.86
396.599	7.9
396.962	7.91
397.324	7.83
397.687	7.84
398.05	7.88
398.413	7.92
398.776	8.01
399.138	8.01
399.501	7.97
399.864	7.95
400.227	7.98
400.589	7.97
400.952	8.01
401.314	8.1
401.677	8.08
402.039	8.1
402.402	8.12
402.764	8.09
403.126	8.13
403.489	8.07
403.851	8.07
404.213	8.04
404.576	8.03
404.938	8.08
405.3	8.12
405.662	8.11
406.024	8.08
406.386	7.99
406.748	7.96
407.11	7.89
407.472	7.93
407.834	7.89
408.196	7.89
408.558	7.86
408.92	7.78
409.282	7.73
409.643	7.74
410.005	7.74
410.367	7.71
410.728	7.74
411.09	7.73
411.452	7.75
411.813	7.81
412.175	7.8
412.536	7.84
412.898	7.85
413.259	7.87
413.62	7.89
413.982	7.82
414.343	7.88
414.704	7.83
415.066	7.79
415.427	7.79
415.788	7.83
416.149	7.86
416.51	7.87
416.871	7.84
417.232	7.89
417.593	7.88
417.954	7.89
418.315	7.84
418.676	7.83
419.037	7.92
419.398	7.93
419.759	7.91
420.119	7.9
420.48	7.91
420.841	7.91
421.201	7.88
421.562	7.85
421.923	7.86
422.283	7.92
422.644	7.97
423.004	7.92
423.365	7.87
423.725	7.88
424.086	7.89
424.446	7.86
424.806	7.84
425.166	7.86
425.527	7.88
425.887	7.9
426.247	7.86
426.607	7.83
426.967	7.83
427.327	7.85
427.687	7.82
428.047	7.8
428.407	7.8
428.767	7.79
429.127	7.77
429.487	7.78
429.847	7.87
430.207	7.95
430.566	7.98
430.926	8.01
431.286	8.05
431.645	8.1
432.005	8.12
432.365	8.18
432.724	8.23
433.084	8.19
433.443	8.18
433.803	8.1
434.162	8.05
434.521	8.05
434.881	8.06
435.24	8.01
435.599	7.96
435.958	7.99
436.318	7.95
436.677	7.93
437.036	8
437.395	8.04
437.754	8.05
438.113	8.05
438.472	8.06
438.831	8.07
439.19	8.08
439.549	8.1
439.908	8.07
440.266	8.04
440.625	8.01
440.984	8
441.343	7.98
441.701	7.96
442.06	7.95
442.418	7.92
442.777	7.89
443.136	7.91
443.494	7.9
443.852	7.94
444.211	7.93
444.569	7.94
444.928	7.9
445.286	7.91
445.644	7.89
446.002	7.95
446.361	7.97
446.719	7.99
447.077	8.02
447.435	8.04
447.793	8.02
448.151	8.06
448.509	8.08
448.867	8.1
449.225	8.14
449.583	8.15
449.94	8.13
450.298	8.14
450.656	8.1
451.014	8.05
451.371	8.05
451.729	8.06
452.087	8.01
452.444	8.03
452.802	8.06
453.159	8
453.517	7.99
453.874	8.01
454.232	8.05
454.589	8.12
454.946	8.23
455.304	8.26
455.661	8.31
456.018	8.34
456.375	8.36
456.732	8.32
457.09	8.32
457.447	8.32
457.804	8.29
458.161	8.23
458.518	8.2
458.875	8.18
459.231	8.13
459.588	8.11
459.945	8.17
460.302	8.16
460.659	8.16
461.015	8.11
461.372	8.06
461.729	8.09
462.085	8.08
462.442	8.05
462.798	7.98
463.155	7.99
463.511	7.97
463.868	7.91
464.224	7.95
464.58	8.01
464.937	8.05
465.293	8.09
465.649	8.03
466.005	8.11
466.362	8.11
466.718	8.14
467.074	8.1
467.43	8.15
467.786	8.16
468.142	8.1
468.498	8.09
468.854	8.13
469.21	8.17
469.565	8.21
469.921	8.21
470.277	8.23
470.633	8.27
470.988	8.28
471.344	8.25
471.7	8.23
472.055	8.26
472.411	8.25
472.766	8.24
473.122	8.26
473.477	8.24
473.832	8.17
474.188	8.14
474.543	8.12
474.898	8.12
475.254	8.08
475.609	8.1
475.964	8.11
476.319	8.16
476.674	8.14
477.029	8.11
477.384	8.09
477.739	8.12
478.094	8.16
478.449	8.12
478.804	8.16
479.159	8.15
479.513	8.14
479.868	8.14
480.223	8.11
480.578	8.09
480.932	8.06
481.287	8.05
481.641	8.02
481.996	7.96
482.35	7.97
482.705	7.98
483.059	8.01
483.414	8.03
483.768	8.04
484.122	8.04
484.477	8.04
484.831	8.06
485.185	8.07
485.539	8.09
485.893	8.13
486.247	8.19
486.601	8.18
486.955	8.19
487.309	8.18
487.663	8.17
488.017	8.17
488.371	8.18
488.725	8.21
489.078	8.23
489.432	8.22
489.786	8.22
490.14	8.16
490.493	8.19
490.847	8.18
491.2	8.19
491.554	8.21
491.907	8.22
492.261	8.23
492.614	8.22
492.967	8.25
493.321	8.25
493.674	8.28
494.027	8.32
494.38	8.3
494.734	8.31
495.087	8.32
495.44	8.31
495.793	8.31
496.146	8.33
496.499	8.32
496.852	8.28
497.205	8.35
497.558	8.35
497.91	8.37
498.263	8.41
498.616	8.43
498.969	8.41
499.321	8.43
499.674	8.44
500.027	8.42
500.379	8.47
500.732	8.5
501.084	8.47
501.436	8.48
501.789	8.44
502.141	8.46
502.494	8.46
502.846	8.48
503.198	8.48
503.55	8.47
503.902	8.51
504.255	8.51
504.607	8.53
504.959	8.56
505.311	8.59
505.663	8.64
506.015	8.6
506.367	8.59
506.718	8.58
507.07	8.59
507.422	8.59
507.774	8.54
508.125	8.52
508.477	8.54
508.829	8.53
509.18	8.54
509.532	8.53
509.883	8.56
510.235	8.56
510.586	8.58
510.938	8.57
511.289	8.59
511.64	8.65
511.992	8.68
512.343	8.66
512.694	8.68
513.045	8.66
513.396	8.67
513.747	8.7
514.098	8.71
514.449	8.74
514.8	8.77
515.151	8.78
515.502	8.76
515.853	8.76
516.204	8.75
516.555	8.73
516.905	8.73
517.256	8.77
517.607	8.77
517.957	8.79
518.308	8.75
518.658	8.75
519.009	8.75
519.359	8.75
519.71	8.75
520.06	8.8
520.41	8.78
520.761	8.81
521.111	8.79
521.461	8.78
521.811	8.78
522.162	8.79
522.512	8.8
522.862	8.81
523.212	8.81
523.562	8.81
523.912	8.77
524.262	8.77
524.611	8.78
524.961	8.77
525.311	8.78
525.661	8.79
526.01	8.8
526.36	8.79
526.71	8.76
527.059	8.78
527.409	8.79
527.758	8.8
528.108	8.8
528.457	8.81
528.807	8.82
529.156	8.83
529.505	8.85
529.855	8.85
530.204	8.87
530.553	8.92
530.902	8.94
531.251	8.94
531.6	8.97
531.949	8.99
532.298	9.01
532.647	9.05
532.996	9.06
533.345	9.06
533.694	9.07
534.043	9.08
534.391	9.09
534.74	9.12
535.089	9.16
535.437	9.19
535.786	9.23
536.135	9.25
536.483	9.25
536.832	9.29
537.18	9.32
537.528	9.35
537.877	9.36
538.225	9.41
538.573	9.46
538.921	9.46
539.27	9.46
539.618	9.46
539.966	9.48
540.314	9.5
540.662	9.49
541.01	9.49
541.358	9.51
541.706	9.54
542.054	9.56
542.402	9.56
542.749	9.59
543.097	9.65
543.445	9.68
543.792	9.73
544.14	9.74
544.488	9.77
544.835	9.8
545.183	9.84
545.53	9.86
545.878	9.87
546.225	9.96
546.572	10
546.92	10.01
547.267	10.05
547.614	10.09
547.961	10.17
548.308	10.23
548.655	10.28
549.002	10.36
549.349	10.4
549.696	10.53
550.043	10.55
550.39	10.58
550.737	10.61
551.084	10.67
551.431	10.75
551.777	10.77
552.124	10.83
552.471	10.89
552.817	10.9
553.164	10.97
553.51	10.93
553.857	10.91
554.203	10.96
554.55	11
554.896	11.1
555.242	11.15
555.589	11.2
555.935	11.21
556.281	11.24
556.627	11.34
556.973	11.38
557.319	11.48
557.665	11.61
558.011	11.73
558.357	11.83
558.703	11.88
559.049	11.95
559.395	12.04
559.741	12.23
560.086	12.35
560.432	12.41
560.778	12.48
561.123	12.52
561.469	12.58
561.815	12.64
562.16	12.7
562.506	12.75
562.851	12.82
563.196	12.92
563.542	12.96
563.887	12.96
564.232	13.08
564.577	13.21
564.922	13.36
565.268	13.53
565.613	13.66
565.958	13.78
566.303	13.95
566.648	14.11
566.993	14.22
567.337	14.37
567.682	14.6
568.027	14.72
568.372	14.88
568.717	15.05
569.061	15.24
569.406	15.4
569.75	15.57
570.095	15.7
570.439	15.84
570.784	16.03
571.128	16.18
571.473	16.29
571.817	16.51
572.161	16.68
572.505	16.82
572.85	16.95
573.194	17.14
573.538	17.28
573.882	17.49
574.226	17.75
574.57	17.98
574.914	18.16
575.258	18.35
575.602	18.53
575.946	18.74
576.289	18.98
576.633	19.16
576.977	19.4
577.32	19.7
577.664	19.95
578.008	20.17
578.351	20.46
578.695	20.78
579.038	21.12
579.382	21.33
579.725	21.65
580.068	21.95
580.411	22.28
580.755	22.61
581.098	22.91
581.441	23.24
581.784	23.56
582.127	23.84
582.47	24.11
582.813	24.43
583.156	24.86
583.499	25.19
583.842	25.52
584.185	25.91
584.527	26.19
584.87	26.62
585.213	26.97
585.556	27.43
585.898	27.87
586.241	28.36
586.583	28.73
586.926	29.08
587.268	29.5
587.61	29.87
587.953	30.24
588.295	30.74
588.637	31.15
588.98	31.62
589.322	32.01
589.664	32.43
590.006	32.83
590.348	33.26
590.69	33.7
591.032	34.07
591.374	34.45
591.716	34.87
592.058	35.33
592.399	35.82
592.741	36.17
593.083	36.65
593.424	37.17
593.766	37.64
594.108	38.2
594.449	38.7
594.791	39.29
595.132	39.93
595.474	40.47
595.815	40.94
596.156	41.41
596.497	41.97
596.839	42.49
597.18	42.87
597.521	43.33
597.862	43.71
598.203	44.16
598.544	44.68
598.885	45.23
599.226	45.77
599.567	46.3
599.908	46.8
600.249	47.26
600.589	47.87
600.93	48.52
601.271	49.12
601.611	49.76
601.952	50.34
602.292	50.87
602.633	51.36
602.973	51.99
603.314	52.54
603.654	52.98
603.995	53.47
604.335	53.74
604.675	54.16
605.015	54.53
605.355	55.04
605.695	55.56
606.036	55.92
606.376	56.39
606.715	56.78
607.055	57.39
607.395	58
607.735	58.51
608.075	59.04
608.415	59.57
608.754	59.96
609.094	60.29
609.434	60.59
609.773	61.06
610.113	61.39
610.452	61.81
610.792	62.16
611.131	62.59
611.471	62.93
611.81	63.29
612.149	63.61
612.488	64.11
612.828	64.42
613.167	64.9
613.506	65.13
613.845	65.58
614.184	66.01
614.523	66.27
614.862	66.5
615.201	66.94
615.539	67.37
615.878	67.7
616.217	67.99
616.556	68.41
616.894	68.6
617.233	68.92
617.571	69.16
617.91	69.35
618.248	69.54
618.587	69.78
618.925	69.87
619.264	70.05
619.602	70.33
619.94	70.62
620.278	70.85
620.617	71.21
620.955	71.57
621.293	71.79
621.631	71.97
621.969	72.26
622.307	72.62
622.645	73.01
622.983	73.11
623.32	73.24
623.658	73.35
623.996	73.42
624.334	73.51
624.671	73.62
625.009	73.96
625.346	74.24
625.684	74.49
626.021	74.65
626.359	74.85
626.696	75.2
627.033	75.49
627.371	75.82
627.708	76.2
628.045	76.37
628.382	76.58
628.719	76.67
629.056	76.86
629.394	76.98
629.73	77.12
630.067	77.34
630.404	77.49
630.741	77.55
631.078	77.5
631.415	77.68
631.751	77.83
632.088	77.89
632.425	77.99
632.761	78.05
633.098	78.23
633.434	78.52
633.771	78.51
634.107	78.52
634.443	78.55
634.78	78.64
635.116	78.63
635.452	78.75
635.788	78.89
636.124	78.85
636.46	78.83
636.797	78.73
637.133	78.47
637.468	78.6
637.804	78.81
638.14	79.1
638.476	79.26
638.812	79.47
639.147	79.53
639.483	79.54
639.819	79.73
640.154	79.78
640.49	80
640.825	80.26
641.161	80.51
641.496	80.51
641.832	80.52
642.167	80.55
642.502	80.6
642.837	80.77
643.172	80.94
643.508	80.98
643.843	81.16
644.178	81.2
644.513	81.17
644.848	81.06
645.183	81.12
645.517	80.9
645.852	80.98
646.187	81.01
646.522	80.99
646.856	81.12
647.191	81.32
647.526	81.54
647.86	81.57
648.195	81.55
648.529	81.55
648.863	81.58
649.198	81.79
649.532	81.78
649.866	81.68
650.201	81.47
650.535	81.41
650.869	81.26
651.203	81.28
651.537	81.32
651.871	81.41
652.205	81.43
652.539	81.65
652.873	81.65
653.206	81.63
653.54	81.81
653.874	82.02
654.208	82.17
654.541	82.2
654.875	82.16
655.208	82.19
655.542	82.37
655.875	82.44
656.209	82.28
656.542	82.52
656.875	82.6
657.208	82.4
657.542	82.43
657.875	82.32
658.208	82.37
658.541	82.45
658.874	82.5
659.207	82.34
659.54	82.4
659.873	82.3
660.206	82.09
660.538	82.11
660.871	82.16
661.204	82.26
661.536	82.42
661.869	82.29
662.202	82.26
662.534	82.15
662.867	82.3
663.199	82.37
663.531	82.55
663.864	82.69
664.196	82.86
664.528	82.8
664.86	82.83
665.193	82.94
665.525	83.13
665.857	83.04
666.189	83.2
666.521	83.2
666.853	83.03
667.184	82.94
667.516	82.78
667.848	82.7
668.18	82.88
668.511	82.94
668.843	82.57
669.175	82.68
669.506	82.66
669.838	82.65
670.169	82.58
670.5	82.69
670.832	82.62
671.163	82.72
671.494	82.52
671.826	82.5
672.157	82.45
672.488	82.64
672.819	82.56
673.15	82.6
673.481	82.46
673.812	82.35
674.143	82.15
674.473	82.25
674.804	82.08
675.135	82.09
675.466	81.91
675.796	81.69
676.127	81.61
676.457	81.56
676.788	81.54
677.118	81.69
677.449	81.84
