Data from coltest_Reflection_012.txt Node
Date: Mon Feb 02 14:11:07 EST 2015
User: jamesohanlon
Spectrometer: JAZA0776
Autoset integration time: false
Trigger mode: 0
Integration Time (sec): 1.000000E-1
Scans to average: 10
Electric dark correction enabled: true
Nonlinearity correction enabled: false
Boxcar width: 10
Stray light correction enabled: false
XAxis mode: Wavelengths
Stop averaging: false
Number of Pixels in Spectrum: 2048
>>>>>Begin Spectral Data<<<<<
190.472	71.66
190.851	63.78
191.23	64.47
191.609	65.61
191.988	75
192.366	95.65
192.745	-179.41
193.124	-207.69
193.503	103.16
193.882	69.34
194.26	185.44
194.639	91
195.018	84.94
195.397	77.74
195.775	88.86
196.154	93.31
196.532	76.49
196.911	70.59
197.29	58.21
197.668	52.32
198.047	51.71
198.425	39.99
198.803	36.71
199.182	37.56
199.56	39.18
199.939	42.03
200.317	43.39
200.695	38.58
201.074	39.89
201.452	40.98
201.83	40.43
202.208	37.12
202.587	35.47
202.965	30.16
203.343	29.48
203.721	29.47
204.099	30.71
204.477	36.7
204.855	42.2
205.233	42.44
205.611	45.16
205.989	43.25
206.367	50.14
206.745	47.98
207.123	47.68
207.501	44.2
207.879	42.17
208.257	40.05
208.635	34.74
209.012	30.2
209.39	23.95
209.768	27.59
210.146	30
210.523	31.1
210.901	33.66
211.278	31.96
211.656	32.3
212.034	31.78
212.411	29.3
212.789	25.75
213.166	22.36
213.544	19.42
213.921	22.74
214.299	24.55
214.676	30.48
215.053	31.21
215.431	32.1
215.808	32.27
216.185	29.98
216.563	36.22
216.94	38.32
217.317	39.98
217.694	37.05
218.072	32.05
218.449	32.68
218.826	31.73
219.203	32.25
219.58	30.86
219.957	29.5
220.334	30.44
220.711	31.58
221.088	34.12
221.465	34.72
221.842	31.97
222.219	32.63
222.596	30.1
222.973	30.59
223.349	30.91
223.726	29.42
224.103	30.12
224.48	30.67
224.856	30.11
225.233	28.89
225.61	28.52
225.986	28.64
226.363	28.18
226.74	28.17
227.116	27.57
227.493	27.24
227.869	26.91
228.246	26.28
228.622	25.84
228.999	25.47
229.375	25.44
229.751	24.84
230.128	24.64
230.504	24.44
230.88	23.74
231.257	23.54
231.633	23.23
232.009	23.09
232.385	22.47
232.761	22.1
233.138	22.36
233.514	22.29
233.89	21.93
234.266	21.94
234.642	22.24
235.018	22.52
235.394	22.22
235.77	21.87
236.146	22
236.522	22.01
236.898	21.62
237.274	21.5
237.649	21.7
238.025	21.05
238.401	20.93
238.777	20.61
239.152	20.32
239.528	20.14
239.904	19.75
240.279	19.5
240.655	19.51
241.031	19.28
241.406	19.03
241.782	18.89
242.157	18.64
242.533	18.18
242.908	17.89
243.284	17.69
243.659	17.53
244.034	17.25
244.41	17.07
244.785	16.96
245.16	16.81
245.536	16.71
245.911	16.73
246.286	16.62
246.661	16.55
247.037	16.4
247.412	16.31
247.787	16.21
248.162	16.18
248.537	16
248.912	15.93
249.287	15.84
249.662	15.85
250.037	15.76
250.412	15.77
250.787	15.74
251.162	15.61
251.537	15.6
251.911	15.5
252.286	15.4
252.661	15.49
253.036	15.38
253.41	15.21
253.785	15.16
254.16	15.02
254.534	14.97
254.909	14.97
255.284	14.97
255.658	14.92
256.033	14.71
256.407	14.77
256.782	14.65
257.156	14.53
257.53	14.41
257.905	14.42
258.279	14.42
258.654	14.39
259.028	14.47
259.402	14.44
259.776	14.45
260.151	14.47
260.525	14.29
260.899	14.27
261.273	14.3
261.647	14.23
262.021	14.26
262.395	14.23
262.769	14.2
263.143	14.15
263.517	14.23
263.891	14.32
264.265	14.27
264.639	14.24
265.013	14.32
265.387	14.31
265.761	14.24
266.135	14.24
266.508	14.17
266.882	14.16
267.256	14.08
267.629	13.99
268.003	13.99
268.377	14.04
268.75	14.09
269.124	14.14
269.497	14.17
269.871	14.07
270.244	14.05
270.618	14.02
270.991	14
271.365	13.91
271.738	13.91
272.111	13.88
272.485	13.92
272.858	13.96
273.231	13.94
273.604	14.07
273.978	14.09
274.351	14.13
274.724	14.15
275.097	14.18
275.47	14.17
275.843	14.1
276.216	14.13
276.589	14.09
276.962	13.98
277.335	13.95
277.708	14.06
278.081	14.17
278.454	14.16
278.827	14.14
279.2	14.14
279.572	14.17
279.945	14.19
280.318	14.26
280.691	14.27
281.063	14.3
281.436	14.15
281.808	14.15
282.181	14.12
282.554	14.01
282.926	14.04
283.299	14.04
283.671	13.97
284.044	13.96
284.416	13.9
284.788	13.94
285.161	13.92
285.533	13.83
285.905	13.68
286.278	13.6
286.65	13.56
287.022	13.53
287.394	13.44
287.766	13.4
288.139	13.32
288.511	13.29
288.883	13.29
289.255	13.3
289.627	13.26
289.999	13.18
290.371	13.19
290.743	13.14
291.115	13.16
291.486	13.17
291.858	13.14
292.23	13.15
292.602	13.1
292.974	13.12
293.345	13.12
293.717	13.13
294.089	13.15
294.46	13.17
294.832	13.16
295.204	13.1
295.575	13.07
295.947	12.99
296.318	12.95
296.69	12.85
297.061	12.77
297.433	12.73
297.804	12.77
298.175	12.71
298.547	12.64
298.918	12.58
299.289	12.61
299.66	12.58
300.032	12.56
300.403	12.51
300.774	12.42
301.145	12.37
301.516	12.36
301.887	12.33
302.258	12.26
302.629	12.18
303	12.2
303.371	12.14
303.742	12.24
304.113	12.2
304.484	12.28
304.855	12.3
305.226	12.26
305.596	12.21
305.967	12.19
306.338	12.24
306.708	12.24
307.079	12.14
307.45	12.1
307.82	12.07
308.191	12.03
308.561	12
308.932	11.95
309.302	11.97
309.673	11.98
310.043	11.95
310.414	12.01
310.784	12.02
311.154	12.01
311.525	11.97
311.895	11.94
312.265	11.88
312.635	11.82
313.006	11.81
313.376	11.85
313.746	11.81
314.116	11.74
314.486	11.69
314.856	11.63
315.226	11.56
315.596	11.53
315.966	11.41
316.336	11.42
316.706	11.34
317.076	11.24
317.445	11.18
317.815	11.2
318.185	11.14
318.555	11.13
318.924	11.07
319.294	10.99
319.664	10.86
320.033	10.8
320.403	10.79
320.772	10.75
321.142	10.68
321.511	10.72
321.881	10.7
322.25	10.57
322.62	10.59
322.989	10.62
323.358	10.61
323.728	10.67
324.097	10.64
324.466	10.66
324.836	10.68
325.205	10.72
325.574	10.63
325.943	10.63
326.312	10.58
326.681	10.55
327.05	10.52
327.419	10.55
327.788	10.55
328.157	10.56
328.526	10.53
328.895	10.51
329.264	10.4
329.633	10.33
330.001	10.37
330.37	10.33
330.739	10.29
331.108	10.24
331.476	10.23
331.845	10.23
332.214	10.29
332.582	10.31
332.951	10.26
333.319	10.29
333.688	10.28
334.056	10.28
334.425	10.31
334.793	10.28
335.161	10.27
335.53	10.3
335.898	10.29
336.266	10.35
336.635	10.3
337.003	10.29
337.371	10.34
337.739	10.4
338.107	10.44
338.475	10.42
338.843	10.44
339.212	10.46
339.58	10.43
339.947	10.41
340.315	10.37
340.683	10.26
341.051	10.28
341.419	10.22
341.787	10.18
342.155	10.14
342.522	10.17
342.89	10.18
343.258	10.17
343.625	10.09
343.993	9.99
344.361	9.99
344.728	10.02
345.096	10.01
345.463	9.96
345.831	10.04
346.198	10.06
346.566	10.06
346.933	10.04
347.3	9.99
347.668	9.98
348.035	9.91
348.402	9.95
348.769	9.85
349.137	9.8
349.504	9.77
349.871	9.77
350.238	9.7
350.605	9.66
350.972	9.58
351.339	9.61
351.706	9.68
352.073	9.69
352.44	9.68
352.807	9.68
353.174	9.73
353.54	9.63
353.907	9.58
354.274	9.6
354.641	9.62
355.007	9.67
355.374	9.65
355.741	9.63
356.107	9.64
356.474	9.72
356.84	9.79
357.207	9.82
357.573	9.79
357.94	9.79
358.306	9.81
358.673	9.85
359.039	9.88
359.405	9.83
359.771	9.82
360.138	9.83
360.504	9.81
360.87	9.76
361.236	9.74
361.602	9.76
361.968	9.74
362.335	9.7
362.701	9.67
363.067	9.67
363.432	9.74
363.798	9.73
364.164	9.7
364.53	9.67
364.896	9.61
365.262	9.66
365.628	9.65
365.993	9.62
366.359	9.59
366.725	9.58
367.09	9.54
367.456	9.53
367.821	9.53
368.187	9.54
368.553	9.56
368.918	9.6
369.283	9.58
369.649	9.59
370.014	9.56
370.38	9.5
370.745	9.48
371.11	9.43
371.475	9.45
371.841	9.39
372.206	9.31
372.571	9.33
372.936	9.32
373.301	9.32
373.666	9.35
374.031	9.32
374.396	9.29
374.761	9.35
375.126	9.37
375.491	9.35
375.856	9.34
376.221	9.37
376.586	9.36
376.95	9.37
377.315	9.36
377.68	9.4
378.044	9.46
378.409	9.44
378.774	9.44
379.138	9.41
379.503	9.45
379.867	9.49
380.232	9.51
380.596	9.5
380.961	9.51
381.325	9.48
381.689	9.47
382.054	9.46
382.418	9.43
382.782	9.37
383.146	9.37
383.51	9.37
383.875	9.33
384.239	9.29
384.603	9.28
384.967	9.26
385.331	9.25
385.695	9.25
386.059	9.3
386.423	9.27
386.786	9.23
387.15	9.26
387.514	9.23
387.878	9.2
388.242	9.18
388.605	9.19
388.969	9.25
389.333	9.25
389.696	9.25
390.06	9.22
390.423	9.21
390.787	9.18
391.15	9.18
391.514	9.19
391.877	9.2
392.241	9.2
392.604	9.22
392.967	9.23
393.331	9.25
393.694	9.25
394.057	9.26
394.42	9.29
394.783	9.26
395.146	9.27
395.51	9.3
395.873	9.35
396.236	9.35
396.599	9.31
396.962	9.3
397.324	9.35
397.687	9.41
398.05	9.44
398.413	9.48
398.776	9.45
399.138	9.43
399.501	9.45
399.864	9.5
400.227	9.49
400.589	9.45
400.952	9.43
401.314	9.39
401.677	9.41
402.039	9.43
402.402	9.45
402.764	9.51
403.126	9.54
403.489	9.52
403.851	9.54
404.213	9.53
404.576	9.58
404.938	9.51
405.3	9.46
405.662	9.48
406.024	9.46
406.386	9.49
406.748	9.5
407.11	9.51
407.472	9.51
407.834	9.5
408.196	9.52
408.558	9.55
408.92	9.57
409.282	9.58
409.643	9.6
410.005	9.57
410.367	9.54
410.728	9.52
411.09	9.5
411.452	9.52
411.813	9.52
412.175	9.52
412.536	9.52
412.898	9.54
413.259	9.57
413.62	9.58
413.982	9.58
414.343	9.57
414.704	9.53
415.066	9.5
415.427	9.54
415.788	9.56
416.149	9.54
416.51	9.5
416.871	9.47
417.232	9.44
417.593	9.46
417.954	9.43
418.315	9.41
418.676	9.42
419.037	9.38
419.398	9.38
419.759	9.36
420.119	9.4
420.48	9.42
420.841	9.38
421.201	9.4
421.562	9.4
421.923	9.41
422.283	9.45
422.644	9.45
423.004	9.42
423.365	9.4
423.725	9.4
424.086	9.41
424.446	9.44
424.806	9.46
425.166	9.47
425.527	9.49
425.887	9.52
426.247	9.54
426.607	9.56
426.967	9.58
427.327	9.6
427.687	9.58
428.047	9.57
428.407	9.57
428.767	9.57
429.127	9.6
429.487	9.6
429.847	9.59
430.207	9.57
430.566	9.56
430.926	9.57
431.286	9.56
431.645	9.56
432.005	9.56
432.365	9.54
432.724	9.54
433.084	9.53
433.443	9.5
433.803	9.49
434.162	9.53
434.521	9.52
434.881	9.53
435.24	9.56
435.599	9.57
435.958	9.62
436.318	9.61
436.677	9.61
437.036	9.63
437.395	9.63
437.754	9.63
438.113	9.64
438.472	9.64
438.831	9.67
439.19	9.68
439.549	9.67
439.908	9.7
440.266	9.72
440.625	9.76
440.984	9.77
441.343	9.77
441.701	9.75
442.06	9.76
442.418	9.75
442.777	9.73
443.136	9.72
443.494	9.71
443.852	9.73
444.211	9.72
444.569	9.68
444.928	9.69
445.286	9.7
445.644	9.72
446.002	9.72
446.361	9.7
446.719	9.7
447.077	9.71
447.435	9.68
447.793	9.68
448.151	9.66
448.509	9.64
448.867	9.65
449.225	9.65
449.583	9.64
449.94	9.67
450.298	9.69
450.656	9.71
451.014	9.71
451.371	9.72
451.729	9.76
452.087	9.81
452.444	9.8
452.802	9.83
453.159	9.83
453.517	9.86
453.874	9.91
454.232	9.91
454.589	9.92
454.946	9.93
455.304	9.93
455.661	9.91
456.018	9.92
456.375	9.95
456.732	9.95
457.09	9.95
457.447	9.95
457.804	9.97
458.161	9.97
458.518	9.95
458.875	9.96
459.231	9.91
459.588	9.89
459.945	9.91
460.302	9.91
460.659	9.89
461.015	9.89
461.372	9.86
461.729	9.85
462.085	9.85
462.442	9.86
462.798	9.85
463.155	9.85
463.511	9.87
463.868	9.85
464.224	9.86
464.58	9.86
464.937	9.87
465.293	9.86
465.649	9.84
466.005	9.87
466.362	9.87
466.718	9.88
467.074	9.9
467.43	9.89
467.786	9.91
468.142	9.95
468.498	9.97
468.854	9.97
469.21	9.98
469.565	9.98
469.921	9.99
470.277	10.03
470.633	10.06
470.988	10.08
471.344	10.1
471.7	10.07
472.055	10.09
472.411	10.07
472.766	10.07
473.122	10.09
473.477	10.08
473.832	10.06
474.188	10.06
474.543	10.05
474.898	10.04
475.254	10.03
475.609	9.99
475.964	9.95
476.319	9.96
476.674	9.96
477.029	9.93
477.384	9.93
477.739	9.9
478.094	9.9
478.449	9.88
478.804	9.87
479.159	9.88
479.513	9.86
479.868	9.81
480.223	9.79
480.578	9.76
480.932	9.74
481.287	9.76
481.641	9.75
481.996	9.76
482.35	9.76
482.705	9.76
483.059	9.76
483.414	9.78
483.768	9.77
484.122	9.77
484.477	9.77
484.831	9.77
485.185	9.77
485.539	9.77
485.893	9.77
486.247	9.78
486.601	9.78
486.955	9.79
487.309	9.82
487.663	9.83
488.017	9.85
488.371	9.86
488.725	9.86
489.078	9.86
489.432	9.87
489.786	9.88
490.14	9.9
490.493	9.91
490.847	9.93
491.2	9.95
491.554	9.96
491.907	9.99
492.261	10
492.614	10.01
492.967	10.01
493.321	10.01
493.674	10.02
494.027	10.01
494.38	10.03
494.734	10.01
495.087	10.02
495.44	10.03
495.793	10.06
496.146	10.09
496.499	10.1
496.852	10.11
497.205	10.13
497.558	10.12
497.91	10.13
498.263	10.13
498.616	10.15
498.969	10.15
499.321	10.16
499.674	10.17
500.027	10.19
500.379	10.21
500.732	10.22
501.084	10.24
501.436	10.27
501.789	10.27
502.141	10.31
502.494	10.33
502.846	10.36
503.198	10.4
503.55	10.39
503.902	10.4
504.255	10.42
504.607	10.42
504.959	10.42
505.311	10.41
505.663	10.44
506.015	10.47
506.367	10.48
506.718	10.47
507.07	10.49
507.422	10.5
507.774	10.5
508.125	10.52
508.477	10.5
508.829	10.51
509.18	10.54
509.532	10.53
509.883	10.52
510.235	10.5
510.586	10.48
510.938	10.49
511.289	10.52
511.64	10.52
511.992	10.52
512.343	10.53
512.694	10.55
513.045	10.54
513.396	10.5
513.747	10.49
514.098	10.5
514.449	10.5
514.8	10.5
515.151	10.5
515.502	10.5
515.853	10.51
516.204	10.51
516.555	10.49
516.905	10.5
517.256	10.53
517.607	10.54
517.957	10.57
518.308	10.57
518.658	10.56
519.009	10.53
519.359	10.55
519.71	10.55
520.06	10.54
520.41	10.55
520.761	10.56
521.111	10.56
521.461	10.57
521.811	10.56
522.162	10.54
522.512	10.54
522.862	10.54
523.212	10.53
523.562	10.52
523.912	10.52
524.262	10.51
524.611	10.5
524.961	10.5
525.311	10.48
525.661	10.48
526.01	10.48
526.36	10.5
526.71	10.49
527.059	10.52
527.409	10.54
527.758	10.55
528.108	10.56
528.457	10.57
528.807	10.58
529.156	10.6
529.505	10.6
529.855	10.61
530.204	10.62
530.553	10.63
530.902	10.65
531.251	10.65
531.6	10.68
531.949	10.71
532.298	10.73
532.647	10.76
532.996	10.79
533.345	10.82
533.694	10.84
534.043	10.87
534.391	10.87
534.74	10.87
535.089	10.89
535.437	10.9
535.786	10.91
536.135	10.93
536.483	10.96
536.832	11
537.18	11.03
537.528	11.05
537.877	11.07
538.225	11.09
538.573	11.11
538.921	11.13
539.27	11.13
539.618	11.13
539.966	11.15
540.314	11.18
540.662	11.2
541.01	11.22
541.358	11.23
541.706	11.24
542.054	11.26
542.402	11.28
542.749	11.29
543.097	11.31
543.445	11.32
543.792	11.33
544.14	11.36
544.488	11.39
544.835	11.42
545.183	11.48
545.53	11.53
545.878	11.59
546.225	11.63
546.572	11.69
546.92	11.75
547.267	11.79
547.614	11.85
547.961	11.9
548.308	11.91
548.655	11.98
549.002	12.03
549.349	12.06
549.696	12.11
550.043	12.18
550.39	12.25
550.737	12.3
551.084	12.37
551.431	12.39
551.777	12.44
552.124	12.5
552.471	12.55
552.817	12.56
553.164	12.6
553.51	12.64
553.857	12.71
554.203	12.76
554.55	12.83
554.896	12.86
555.242	12.9
555.589	12.99
555.935	13.03
556.281	13.1
556.627	13.18
556.973	13.22
557.319	13.3
557.665	13.35
558.011	13.46
558.357	13.53
558.703	13.64
559.049	13.73
559.395	13.84
559.741	13.91
560.086	13.99
560.432	14.08
560.778	14.15
561.123	14.22
561.469	14.34
561.815	14.43
562.16	14.54
562.506	14.64
562.851	14.73
563.196	14.83
563.542	14.91
563.887	15.02
564.232	15.15
564.577	15.25
564.922	15.37
565.268	15.47
565.613	15.55
565.958	15.66
566.303	15.77
566.648	15.84
566.993	15.97
567.337	16.11
567.682	16.22
568.027	16.35
568.372	16.49
568.717	16.6
569.061	16.72
569.406	16.85
569.75	16.99
570.095	17.15
570.439	17.32
570.784	17.5
571.128	17.66
571.473	17.81
571.817	17.97
572.161	18.1
572.505	18.29
572.85	18.49
573.194	18.66
573.538	18.85
573.882	19.05
574.226	19.19
574.57	19.36
574.914	19.58
575.258	19.79
575.602	20
575.946	20.21
576.289	20.44
576.633	20.66
576.977	20.88
577.32	21.13
577.664	21.36
578.008	21.6
578.351	21.85
578.695	22.1
579.038	22.35
579.382	22.64
579.725	22.93
580.068	23.2
580.411	23.49
580.755	23.81
581.098	24.13
581.441	24.52
581.784	24.84
582.127	25.14
582.47	25.44
582.813	25.76
583.156	26.09
583.499	26.4
583.842	26.75
584.185	27.07
584.527	27.4
584.87	27.73
585.213	28.09
585.556	28.44
585.898	28.77
586.241	29.12
586.583	29.46
586.926	29.82
587.268	30.25
587.61	30.66
587.953	31
588.295	31.37
588.637	31.67
588.98	32.04
589.322	32.46
589.664	32.87
590.006	33.26
590.348	33.7
590.69	34.17
591.032	34.61
591.374	35.06
591.716	35.49
592.058	35.96
592.399	36.42
592.741	36.9
593.083	37.49
593.424	38.04
593.766	38.57
594.108	39.05
594.449	39.5
594.791	39.95
595.132	40.39
595.474	40.84
595.815	41.3
596.156	41.75
596.497	42.15
596.839	42.61
597.18	43.07
597.521	43.5
597.862	43.97
598.203	44.38
598.544	44.91
598.885	45.4
599.226	45.87
599.567	46.4
599.908	46.96
600.249	47.53
600.589	48.09
600.93	48.69
601.271	49.32
601.611	49.91
601.952	50.48
602.292	51.04
602.633	51.55
602.973	52.07
603.314	52.51
603.654	52.98
603.995	53.4
604.335	53.76
604.675	54.19
605.015	54.56
605.355	55.07
605.695	55.5
606.036	55.96
606.376	56.41
606.715	56.84
607.055	57.28
607.395	57.71
607.735	58.18
608.075	58.66
608.415	59.12
608.754	59.57
609.094	60.04
609.434	60.48
609.773	60.91
610.113	61.32
610.452	61.72
610.792	62.1
611.131	62.5
611.471	62.91
611.81	63.35
612.149	63.74
612.488	64.11
612.828	64.51
613.167	64.93
613.506	65.33
613.845	65.74
614.184	66.17
614.523	66.53
614.862	66.93
615.201	67.31
615.539	67.65
615.878	67.93
616.217	68.28
616.556	68.58
616.894	68.82
617.233	69.15
617.571	69.52
617.91	69.83
618.248	70.08
618.587	70.41
618.925	70.7
619.264	70.97
619.602	71.24
619.94	71.51
620.278	71.82
620.617	72.12
620.955	72.39
621.293	72.67
621.631	72.95
621.969	73.14
622.307	73.38
622.645	73.62
622.983	73.94
623.32	74.14
623.658	74.47
623.996	74.74
624.334	74.9
624.671	75.08
625.009	75.32
625.346	75.57
625.684	75.7
626.021	75.85
626.359	76.05
626.696	76.22
627.033	76.33
627.371	76.51
627.708	76.67
628.045	76.85
628.382	77.02
628.719	77.15
629.056	77.33
629.394	77.42
629.73	77.53
630.067	77.61
630.404	77.79
630.741	77.86
631.078	78.04
631.415	78.23
631.751	78.35
632.088	78.51
632.425	78.7
632.761	78.91
633.098	79.02
633.434	79.16
633.771	79.27
634.107	79.43
634.443	79.47
634.78	79.6
635.116	79.73
635.452	79.79
635.788	79.98
636.124	80.14
636.46	80.36
636.797	80.45
637.133	80.63
637.468	80.74
637.804	80.94
638.14	81.09
638.476	81.15
638.812	81.32
639.147	81.4
639.483	81.42
639.819	81.49
640.154	81.56
640.49	81.6
640.825	81.7
641.161	81.8
641.496	81.82
641.832	81.89
642.167	81.98
642.502	82.09
642.837	82.07
643.172	82.17
643.508	82.12
643.843	82.32
644.178	82.38
644.513	82.38
644.848	82.36
645.183	82.38
645.517	82.46
645.852	82.55
646.187	82.54
646.522	82.62
646.856	82.66
647.191	82.77
647.526	82.85
647.86	82.91
648.195	83
648.529	83.12
648.863	83.21
649.198	83.19
649.532	83.23
649.866	83.34
650.201	83.35
650.535	83.39
650.869	83.4
651.203	83.47
651.537	83.5
651.871	83.59
652.205	83.66
652.539	83.73
652.873	83.73
653.206	83.79
653.54	83.77
653.874	83.77
654.208	83.76
654.541	83.83
654.875	83.93
655.208	83.95
655.542	84
655.875	84.01
656.209	84.1
656.542	84.18
656.875	84.24
657.208	84.26
657.542	84.32
657.875	84.42
658.208	84.47
658.541	84.52
658.874	84.4
659.207	84.41
659.54	84.42
659.873	84.44
660.206	84.52
660.538	84.52
660.871	84.6
661.204	84.56
661.536	84.54
661.869	84.45
662.202	84.55
662.534	84.55
662.867	84.59
663.199	84.58
663.531	84.58
663.864	84.55
664.196	84.68
664.528	84.64
664.86	84.52
665.193	84.48
665.525	84.46
665.857	84.58
666.189	84.49
666.521	84.47
666.853	84.38
667.184	84.29
667.516	84.29
667.848	84.16
668.18	84.24
668.511	84.28
668.843	84.35
669.175	84.29
669.506	84.41
669.838	84.33
670.169	84.24
670.5	84.29
670.832	84.33
671.163	84.24
671.494	84.37
671.826	84.29
672.157	84.22
