Data from coltest_Reflection_015.txt Node
Date: Mon Feb 02 14:12:13 EST 2015
User: jamesohanlon
Spectrometer: JAZA0776
Autoset integration time: false
Trigger mode: 0
Integration Time (sec): 1.000000E-1
Scans to average: 10
Electric dark correction enabled: true
Nonlinearity correction enabled: false
Boxcar width: 10
Stray light correction enabled: false
XAxis mode: Wavelengths
Stop averaging: false
Number of Pixels in Spectrum: 2048
>>>>>Begin Spectral Data<<<<<
190.472	47.53
190.851	36.75
191.23	44.21
191.609	52.12
191.988	44.29
192.366	98.55
192.745	221.57
193.124	-300
193.503	-54.53
193.882	-90.16
194.26	-243.46
194.639	-19.8
195.018	5.17
195.397	10.08
195.775	13.98
196.154	32.8
196.532	39.07
196.911	33.43
197.29	31.04
197.668	38.08
198.047	39.64
198.425	32.23
198.803	30.31
199.182	30.83
199.56	28.47
199.939	23.48
200.317	26.61
200.695	20.43
201.074	26.15
201.452	34.05
201.83	35.75
202.208	37.37
202.587	32.28
202.965	28.23
203.343	27.15
203.721	25.38
204.099	20.65
204.477	14.05
204.855	17.8
205.233	15.11
205.611	8.15
205.989	5.72
206.367	7.01
206.745	4.69
207.123	-0.02
207.501	-3.77
207.879	-0.34
208.257	1.4
208.635	7.57
209.012	1.8
209.39	-2.81
209.768	-2.48
210.146	1.94
210.523	4.25
210.901	11.62
211.278	10.88
211.656	12.65
212.034	15.7
212.411	18.28
212.789	16.85
213.166	14.85
213.544	21.11
213.921	23.41
214.299	22.12
214.676	25.18
215.053	26.54
215.431	28.99
215.808	27.14
216.185	22.41
216.563	23.19
216.94	18.04
217.317	18.62
217.694	17.3
218.072	16.37
218.449	15.21
218.826	8.53
219.203	7.94
219.58	6.03
219.957	5.31
220.334	7.08
220.711	9.56
221.088	14.61
221.465	16.32
221.842	13.29
222.219	13.84
222.596	11.28
222.973	10.84
223.349	11.88
223.726	11.83
224.103	13.41
224.48	12.05
224.856	12.57
225.233	10.37
225.61	9.93
225.986	8.41
226.363	8.34
226.74	7.87
227.116	7.78
227.493	6.4
227.869	6.21
228.246	5.87
228.622	5.7
228.999	4.98
229.375	4.11
229.751	4.29
230.128	4.08
230.504	3.9
230.88	3.68
231.257	3.64
231.633	3.46
232.009	3.36
232.385	3.32
232.761	3.09
233.138	2.92
233.514	2.88
233.89	2.33
234.266	2.15
234.642	2.5
235.018	2.54
235.394	3.03
235.77	3.29
236.146	3.15
236.522	3.19
236.898	3.23
237.274	3.2
237.649	3.2
238.025	3.08
238.401	3.22
238.777	3.29
239.152	3.29
239.528	3.27
239.904	3.1
240.279	2.97
240.655	3.1
241.031	3
241.406	3.03
241.782	3.14
242.157	3.02
242.533	2.89
242.908	3.02
243.284	2.97
243.659	2.8
244.034	2.8
244.41	2.69
244.785	2.68
245.16	2.69
245.536	2.67
245.911	2.8
246.286	2.79
246.661	2.83
247.037	2.76
247.412	2.86
247.787	2.82
248.162	2.84
248.537	2.76
248.912	2.86
249.287	2.84
249.662	2.91
250.037	2.92
250.412	3.03
250.787	3
251.162	3.04
251.537	3.14
251.911	3.12
252.286	3.15
252.661	3.15
253.036	3.12
253.41	3.17
253.785	3.09
254.16	3.06
254.534	3
254.909	3.07
255.284	2.96
255.658	2.93
256.033	2.74
256.407	2.84
256.782	2.72
257.156	2.7
257.53	2.77
257.905	2.72
258.279	2.7
258.654	2.63
259.028	2.66
259.402	2.66
259.776	2.67
260.151	2.71
260.525	2.74
260.899	2.7
261.273	2.65
261.647	2.58
262.021	2.56
262.395	2.58
262.769	2.58
263.143	2.54
263.517	2.6
263.891	2.77
264.265	2.73
264.639	2.75
265.013	2.74
265.387	2.73
265.761	2.76
266.135	2.69
266.508	2.76
266.882	2.73
267.256	2.68
267.629	2.74
268.003	2.71
268.377	2.77
268.75	2.8
269.124	2.84
269.497	2.89
269.871	2.89
270.244	2.85
270.618	2.77
270.991	2.78
271.365	2.75
271.738	2.7
272.111	2.69
272.485	2.69
272.858	2.71
273.231	2.66
273.604	2.74
273.978	2.74
274.351	2.72
274.724	2.77
275.097	2.81
275.47	2.75
275.843	2.74
276.216	2.69
276.589	2.7
276.962	2.65
277.335	2.6
277.708	2.59
278.081	2.7
278.454	2.76
278.827	2.75
279.2	2.75
279.572	2.81
279.945	2.85
280.318	2.96
280.691	2.95
281.063	3
281.436	2.96
281.808	2.95
282.181	2.93
282.554	2.88
282.926	2.86
283.299	2.9
283.671	2.89
284.044	2.87
284.416	2.86
284.788	2.88
285.161	2.97
285.533	2.98
285.905	2.87
286.278	2.8
286.65	2.77
287.022	2.73
287.394	2.66
287.766	2.62
288.139	2.54
288.511	2.56
288.883	2.5
289.255	2.5
289.627	2.51
289.999	2.42
290.371	2.4
290.743	2.41
291.115	2.4
291.486	2.39
291.858	2.45
292.23	2.49
292.602	2.51
292.974	2.52
293.345	2.5
293.717	2.51
294.089	2.47
294.46	2.46
294.832	2.47
295.204	2.51
295.575	2.53
295.947	2.52
296.318	2.44
296.69	2.44
297.061	2.39
297.433	2.44
297.804	2.51
298.175	2.5
298.547	2.47
298.918	2.5
299.289	2.5
299.66	2.49
300.032	2.46
300.403	2.42
300.774	2.35
301.145	2.34
301.516	2.36
301.887	2.45
302.258	2.47
302.629	2.44
303	2.38
303.371	2.35
303.742	2.44
304.113	2.55
304.484	2.59
304.855	2.59
305.226	2.54
305.596	2.46
305.967	2.46
306.338	2.48
306.708	2.4
307.079	2.37
307.45	2.35
307.82	2.35
308.191	2.34
308.561	2.36
308.932	2.35
309.302	2.38
309.673	2.36
310.043	2.39
310.414	2.5
310.784	2.52
311.154	2.48
311.525	2.45
311.895	2.44
312.265	2.41
312.635	2.4
313.006	2.49
313.376	2.58
313.746	2.59
314.116	2.63
314.486	2.65
314.856	2.68
315.226	2.64
315.596	2.61
315.966	2.6
316.336	2.6
316.706	2.62
317.076	2.6
317.445	2.55
317.815	2.57
318.185	2.47
318.555	2.45
318.924	2.45
319.294	2.41
319.664	2.32
320.033	2.25
320.403	2.23
320.772	2.1
321.142	2.17
321.511	2.18
321.881	2.17
322.25	2.16
322.62	2.15
322.989	2.19
323.358	2.24
323.728	2.26
324.097	2.22
324.466	2.19
324.836	2.26
325.205	2.31
325.574	2.26
325.943	2.25
326.312	2.23
326.681	2.25
327.05	2.28
327.419	2.34
327.788	2.43
328.157	2.51
328.526	2.54
328.895	2.45
329.264	2.47
329.633	2.46
330.001	2.53
330.37	2.52
330.739	2.49
331.108	2.5
331.476	2.48
331.845	2.49
332.214	2.54
332.582	2.47
332.951	2.45
333.319	2.45
333.688	2.53
334.056	2.54
334.425	2.5
334.793	2.49
335.161	2.42
335.53	2.38
335.898	2.32
336.266	2.3
336.635	2.28
337.003	2.21
337.371	2.19
337.739	2.12
338.107	2.16
338.475	2.15
338.843	2.09
339.212	2.13
339.58	2.06
339.947	2.05
340.315	2.04
340.683	2.04
341.051	2.08
341.419	2.05
341.787	2.07
342.155	2.07
342.522	2.05
342.89	2.08
343.258	2.16
343.625	2.2
343.993	2.17
344.361	2.17
344.728	2.2
345.096	2.17
345.463	2.2
345.831	2.18
346.198	2.19
346.566	2.22
346.933	2.19
347.3	2.24
347.668	2.26
348.035	2.22
348.402	2.21
348.769	2.15
349.137	2.08
349.504	2.06
349.871	2.1
350.238	2.04
350.605	2.09
350.972	2
351.339	1.97
351.706	1.99
352.073	2
352.44	2.02
352.807	2.05
353.174	2.01
353.54	1.95
353.907	1.92
354.274	1.91
354.641	1.9
355.007	1.94
355.374	1.92
355.741	1.9
356.107	1.94
356.474	1.96
356.84	2.02
357.207	2.04
357.573	2.03
357.94	2.04
358.306	2.02
358.673	2.09
359.039	2.11
359.405	2.11
359.771	2.09
360.138	2.07
360.504	2.08
360.87	2.12
361.236	2.16
361.602	2.19
361.968	2.18
362.335	2.2
362.701	2.17
363.067	2.16
363.432	2.24
363.798	2.22
364.164	2.23
364.53	2.24
364.896	2.21
365.262	2.22
365.628	2.23
365.993	2.23
366.359	2.18
366.725	2.18
367.09	2.16
367.456	2.14
367.821	2.18
368.187	2.17
368.553	2.14
368.918	2.09
369.283	2.06
369.649	2.06
370.014	2.03
370.38	1.97
370.745	2.04
371.11	2.02
371.475	2
371.841	1.97
372.206	1.88
372.571	1.86
372.936	1.91
373.301	1.89
373.666	1.87
374.031	1.84
374.396	1.82
374.761	1.87
375.126	1.9
375.491	1.88
375.856	1.85
376.221	1.88
376.586	1.97
376.95	1.97
377.315	1.93
377.68	1.95
378.044	1.98
378.409	1.91
378.774	1.89
379.138	1.94
379.503	1.98
379.867	2.01
380.232	2.06
380.596	2.01
380.961	2.05
381.325	2.1
381.689	2.12
382.054	2.11
382.418	2.09
382.782	2.09
383.146	2.08
383.51	2.07
383.875	2.04
384.239	1.96
384.603	1.96
384.967	2.02
385.331	2.03
385.695	2.08
386.059	2.13
386.423	2.15
386.786	2.11
387.15	2.13
387.514	2.12
387.878	2.1
388.242	2.11
388.605	2.12
388.969	2.13
389.333	2.12
389.696	2.13
390.06	2.11
390.423	2.07
390.787	2.04
391.15	2.03
391.514	2.06
391.877	2.11
392.241	2.09
392.604	2.04
392.967	2.05
393.331	2.03
393.694	1.99
394.057	1.95
394.42	1.95
394.783	1.92
395.146	1.95
395.51	1.97
395.873	1.99
396.236	2
396.599	2.02
396.962	2.02
397.324	2.07
397.687	2.12
398.05	2.16
398.413	2.2
398.776	2.21
399.138	2.17
399.501	2.16
399.864	2.2
400.227	2.2
400.589	2.16
400.952	2.17
401.314	2.18
401.677	2.19
402.039	2.19
402.402	2.17
402.764	2.19
403.126	2.22
403.489	2.17
403.851	2.18
404.213	2.16
404.576	2.15
404.938	2.07
405.3	2.01
405.662	2.01
406.024	1.98
406.386	2
406.748	2.06
407.11	2.07
407.472	2.07
407.834	2.05
408.196	2.07
408.558	2.08
408.92	2.09
409.282	2.11
409.643	2.14
410.005	2.12
410.367	2.15
410.728	2.1
411.09	2.11
411.452	2.09
411.813	2.03
412.175	2.04
412.536	2.05
412.898	2.08
413.259	2.1
413.62	2.18
413.982	2.17
414.343	2.13
414.704	2.09
415.066	2.12
415.427	2.17
415.788	2.19
416.149	2.18
416.51	2.16
416.871	2.12
417.232	2.12
417.593	2.13
417.954	2.09
418.315	2.08
418.676	2.09
419.037	2.1
419.398	2.12
419.759	2.12
420.119	2.14
420.48	2.15
420.841	2.11
421.201	2.06
421.562	2.07
421.923	2.08
422.283	2.09
422.644	2.09
423.004	2.08
423.365	2.06
423.725	2.07
424.086	2.07
424.446	2.09
424.806	2.1
425.166	2.12
425.527	2.11
425.887	2.13
426.247	2.15
426.607	2.13
426.967	2.14
427.327	2.14
427.687	2.13
428.047	2.11
428.407	2.13
428.767	2.14
429.127	2.17
429.487	2.17
429.847	2.18
430.207	2.16
430.566	2.18
430.926	2.19
431.286	2.16
431.645	2.17
432.005	2.17
432.365	2.14
432.724	2.11
433.084	2.15
433.443	2.15
433.803	2.13
434.162	2.17
434.521	2.16
434.881	2.18
435.24	2.2
435.599	2.24
435.958	2.26
436.318	2.24
436.677	2.22
437.036	2.22
437.395	2.22
437.754	2.22
438.113	2.2
438.472	2.2
438.831	2.23
439.19	2.23
439.549	2.24
439.908	2.25
440.266	2.24
440.625	2.23
440.984	2.23
441.343	2.22
441.701	2.17
442.06	2.17
442.418	2.13
442.777	2.11
443.136	2.09
443.494	2.09
443.852	2.1
444.211	2.09
444.569	2.08
444.928	2.09
445.286	2.07
445.644	2.07
446.002	2.08
446.361	2.05
446.719	2.05
447.077	2.05
447.435	2.05
447.793	2.07
448.151	2.05
448.509	2.04
448.867	2.05
449.225	2.06
449.583	2.07
449.94	2.11
450.298	2.13
450.656	2.12
451.014	2.11
451.371	2.13
451.729	2.17
452.087	2.19
452.444	2.19
452.802	2.22
453.159	2.22
453.517	2.19
453.874	2.23
454.232	2.21
454.589	2.21
454.946	2.19
455.304	2.2
455.661	2.21
456.018	2.23
456.375	2.27
456.732	2.29
457.09	2.29
457.447	2.29
457.804	2.31
458.161	2.3
458.518	2.3
458.875	2.31
459.231	2.28
459.588	2.25
459.945	2.25
460.302	2.26
460.659	2.25
461.015	2.28
461.372	2.27
461.729	2.26
462.085	2.26
462.442	2.28
462.798	2.29
463.155	2.28
463.511	2.28
463.868	2.25
464.224	2.27
464.58	2.28
464.937	2.29
465.293	2.29
465.649	2.32
466.005	2.34
466.362	2.33
466.718	2.35
467.074	2.36
467.43	2.38
467.786	2.38
468.142	2.39
468.498	2.37
468.854	2.39
469.21	2.41
469.565	2.4
469.921	2.42
470.277	2.41
470.633	2.45
470.988	2.49
471.344	2.5
471.7	2.46
472.055	2.48
472.411	2.48
472.766	2.47
473.122	2.46
473.477	2.47
473.832	2.47
474.188	2.47
474.543	2.46
474.898	2.42
475.254	2.4
475.609	2.39
475.964	2.42
476.319	2.42
476.674	2.39
477.029	2.39
477.384	2.39
477.739	2.39
478.094	2.37
478.449	2.33
478.804	2.32
479.159	2.35
479.513	2.33
479.868	2.3
480.223	2.28
480.578	2.26
480.932	2.25
481.287	2.25
481.641	2.24
481.996	2.24
482.35	2.25
482.705	2.26
483.059	2.26
483.414	2.25
483.768	2.26
484.122	2.27
484.477	2.27
484.831	2.27
485.185	2.27
485.539	2.27
485.893	2.27
486.247	2.27
486.601	2.27
486.955	2.27
487.309	2.28
487.663	2.3
488.017	2.32
488.371	2.33
488.725	2.34
489.078	2.33
489.432	2.35
489.786	2.37
490.14	2.38
490.493	2.4
490.847	2.4
491.2	2.41
491.554	2.41
491.907	2.43
492.261	2.42
492.614	2.44
492.967	2.45
493.321	2.47
493.674	2.47
494.027	2.48
494.38	2.49
494.734	2.49
495.087	2.49
495.44	2.51
495.793	2.52
496.146	2.53
496.499	2.56
496.852	2.56
497.205	2.57
497.558	2.57
497.91	2.6
498.263	2.6
498.616	2.6
498.969	2.63
499.321	2.63
499.674	2.67
500.027	2.68
500.379	2.69
500.732	2.7
501.084	2.72
501.436	2.74
501.789	2.76
502.141	2.79
502.494	2.82
502.846	2.84
503.198	2.85
503.55	2.85
503.902	2.86
504.255	2.86
504.607	2.87
504.959	2.88
505.311	2.86
505.663	2.89
506.015	2.94
506.367	2.93
506.718	2.95
507.07	2.95
507.422	2.97
507.774	2.99
508.125	3.01
508.477	2.99
508.829	3.01
509.18	3.03
509.532	3.02
509.883	2.99
510.235	3
510.586	2.99
510.938	2.99
511.289	3
511.64	3.02
511.992	3.01
512.343	3.03
512.694	3.06
513.045	3.05
513.396	3.02
513.747	3.03
514.098	3
514.449	3.02
514.8	3.01
515.151	3.01
515.502	3.03
515.853	3.05
516.204	3.04
516.555	3.05
516.905	3.07
517.256	3.12
517.607	3.15
517.957	3.16
518.308	3.18
518.658	3.19
519.009	3.19
519.359	3.21
519.71	3.22
520.06	3.21
520.41	3.22
520.761	3.23
521.111	3.26
521.461	3.29
521.811	3.31
522.162	3.32
522.512	3.35
522.862	3.34
523.212	3.34
523.562	3.34
523.912	3.35
524.262	3.35
524.611	3.33
524.961	3.32
525.311	3.32
525.661	3.32
526.01	3.32
526.36	3.33
526.71	3.31
527.059	3.33
527.409	3.35
527.758	3.36
528.108	3.38
528.457	3.39
528.807	3.38
529.156	3.39
529.505	3.41
529.855	3.41
530.204	3.43
530.553	3.44
530.902	3.46
531.251	3.45
531.6	3.47
531.949	3.49
532.298	3.51
532.647	3.54
532.996	3.57
533.345	3.59
533.694	3.61
534.043	3.65
534.391	3.66
534.74	3.67
535.089	3.68
535.437	3.68
535.786	3.69
536.135	3.73
536.483	3.73
536.832	3.75
537.18	3.78
537.528	3.78
537.877	3.82
538.225	3.86
538.573	3.89
538.921	3.91
539.27	3.93
539.618	3.94
539.966	3.96
540.314	3.99
540.662	4.02
541.01	4.05
541.358	4.07
541.706	4.09
542.054	4.12
542.402	4.15
542.749	4.19
543.097	4.22
543.445	4.24
543.792	4.26
544.14	4.29
544.488	4.33
544.835	4.37
545.183	4.42
545.53	4.46
545.878	4.51
546.225	4.56
546.572	4.62
546.92	4.68
547.267	4.72
547.614	4.78
547.961	4.81
548.308	4.84
548.655	4.89
549.002	4.95
549.349	4.99
549.696	5.03
550.043	5.1
550.39	5.15
550.737	5.18
551.084	5.27
551.431	5.35
551.777	5.43
552.124	5.5
552.471	5.52
552.817	5.56
553.164	5.61
553.51	5.67
553.857	5.73
554.203	5.79
554.55	5.88
554.896	5.95
555.242	6.03
555.589	6.1
555.935	6.17
556.281	6.22
556.627	6.31
556.973	6.42
557.319	6.5
557.665	6.56
558.011	6.65
558.357	6.72
558.703	6.8
559.049	6.88
559.395	6.98
559.741	7.07
560.086	7.17
560.432	7.3
560.778	7.39
561.123	7.47
561.469	7.59
561.815	7.71
562.16	7.8
562.506	7.9
562.851	8.02
563.196	8.13
563.542	8.24
563.887	8.33
564.232	8.43
564.577	8.51
564.922	8.65
565.268	8.8
565.613	8.93
565.958	9.03
566.303	9.17
566.648	9.3
566.993	9.49
567.337	9.62
567.682	9.72
568.027	9.87
568.372	10.02
568.717	10.19
569.061	10.35
569.406	10.55
569.75	10.73
570.095	10.92
570.439	11.13
570.784	11.34
571.128	11.53
571.473	11.72
571.817	11.93
572.161	12.1
572.505	12.31
572.85	12.48
573.194	12.7
573.538	12.9
573.882	13.1
574.226	13.27
574.57	13.5
574.914	13.76
575.258	13.99
575.602	14.25
575.946	14.49
576.289	14.72
576.633	14.97
576.977	15.23
577.32	15.52
577.664	15.77
578.008	16.06
578.351	16.35
578.695	16.67
579.038	16.98
579.382	17.31
579.725	17.64
580.068	17.99
580.411	18.32
580.755	18.67
581.098	19.04
581.441	19.4
581.784	19.76
582.127	20.08
582.47	20.38
582.813	20.76
583.156	21.09
583.499	21.44
583.842	21.76
584.185	22.16
584.527	22.5
584.87	22.87
585.213	23.26
585.556	23.65
585.898	23.99
586.241	24.42
586.583	24.83
586.926	25.25
587.268	25.68
587.61	26.12
587.953	26.53
588.295	26.99
588.637	27.42
588.98	27.86
589.322	28.34
589.664	28.84
590.006	29.25
590.348	29.73
590.69	30.27
591.032	30.78
591.374	31.26
591.716	31.74
592.058	32.27
592.399	32.73
592.741	33.23
593.083	33.8
593.424	34.35
593.766	34.87
594.108	35.35
594.449	35.84
594.791	36.31
595.132	36.77
595.474	37.23
595.815	37.67
596.156	38.12
596.497	38.56
596.839	39
597.18	39.51
597.521	39.95
597.862	40.38
598.203	40.79
598.544	41.25
598.885	41.71
599.226	42.15
599.567	42.69
599.908	43.3
600.249	43.88
600.589	44.46
600.93	45.08
601.271	45.69
601.611	46.3
601.952	46.87
602.292	47.4
602.633	47.85
602.973	48.32
603.314	48.78
603.654	49.25
603.995	49.69
604.335	50.08
604.675	50.5
605.015	50.86
605.355	51.34
605.695	51.77
606.036	52.22
606.376	52.7
606.715	53.16
607.055	53.56
607.395	53.98
607.735	54.35
608.075	54.79
608.415	55.22
608.754	55.63
609.094	56.05
609.434	56.48
609.773	56.93
610.113	57.35
610.452	57.65
610.792	57.97
611.131	58.34
611.471	58.7
611.81	59.04
612.149	59.43
612.488	59.79
612.828	60.18
613.167	60.59
613.506	60.94
613.845	61.27
614.184	61.67
614.523	62.09
614.862	62.56
615.201	62.9
615.539	63.27
615.878	63.54
616.217	63.87
616.556	64.1
616.894	64.37
617.233	64.69
617.571	65.07
617.91	65.41
618.248	65.66
618.587	65.87
618.925	66.2
619.264	66.47
619.602	66.74
619.94	66.97
620.278	67.22
620.617	67.49
620.955	67.73
621.293	67.97
621.631	68.14
621.969	68.26
622.307	68.48
622.645	68.67
622.983	68.99
623.32	69.23
623.658	69.49
623.996	69.7
624.334	69.86
624.671	70.02
625.009	70.24
625.346	70.42
625.684	70.59
626.021	70.78
626.359	70.95
626.696	71.09
627.033	71.25
627.371	71.36
627.708	71.5
628.045	71.65
628.382	71.8
628.719	71.98
629.056	72.14
629.394	72.29
629.73	72.44
630.067	72.49
630.404	72.61
630.741	72.7
631.078	72.9
631.415	73.03
631.751	73.14
632.088	73.26
632.425	73.46
632.761	73.64
633.098	73.74
633.434	73.9
633.771	74
634.107	74.19
634.443	74.32
634.78	74.49
635.116	74.62
635.452	74.68
635.788	74.77
636.124	74.99
636.46	75.16
636.797	75.25
637.133	75.41
637.468	75.48
637.804	75.72
638.14	75.79
638.476	75.87
638.812	76.01
639.147	76.04
639.483	76.12
639.819	76.1
640.154	76.15
640.49	76.17
640.825	76.19
641.161	76.18
641.496	76.21
641.832	76.23
642.167	76.25
642.502	76.37
642.837	76.47
643.172	76.44
643.508	76.46
643.843	76.55
644.178	76.62
644.513	76.79
644.848	76.74
645.183	76.77
645.517	76.85
645.852	76.86
646.187	76.88
646.522	76.89
646.856	76.95
647.191	76.99
647.526	77.11
647.86	77.27
648.195	77.36
648.529	77.48
648.863	77.54
649.198	77.66
649.532	77.61
649.866	77.57
650.201	77.57
650.535	77.62
650.869	77.67
651.203	77.67
651.537	77.69
651.871	77.73
652.205	77.8
652.539	77.83
652.873	77.85
653.206	77.95
653.54	78.04
653.874	78.19
654.208	78.23
654.541	78.27
654.875	78.31
655.208	78.3
655.542	78.46
655.875	78.52
656.209	78.64
656.542	78.8
656.875	78.95
657.208	79.02
657.542	79
657.875	79
658.208	79.11
658.541	79.15
658.874	79.19
659.207	79.2
659.54	79.28
659.873	79.37
660.206	79.41
660.538	79.33
660.871	79.32
661.204	79.33
661.536	79.34
661.869	79.31
662.202	79.31
662.534	79.2
662.867	79.12
663.199	79.03
663.531	78.96
663.864	78.85
664.196	78.89
664.528	78.86
664.86	78.83
665.193	78.7
665.525	78.68
665.857	78.65
666.189	78.63
666.521	78.64
666.853	78.53
667.184	78.44
667.516	78.42
667.848	78.31
668.18	78.34
668.511	78.26
668.843	78.24
669.175	78.25
669.506	78.27
669.838	78.31
670.169	78.29
670.5	78.35
670.832	78.35
671.163	78.23
671.494	78.27
671.826	78.26
672.157	78.29
672.488	78.2
672.819	78.21
673.15	78.12
673.481	77.96
673.812	78.06
674.143	78.11
674.473	78.05
674.804	78.09
675.135	78.08
675.466	78.13
675.796	78.18
676.127	78.12
676.457	78.1
676.788	78.11
677.118	78.1
677.449	78.12
677.779	78.14
678.109	78.16
678.44	78.28
678.77	78.31
679.1	78.29
679.43	78.23
679.76	78.25
680.09	78.33
680.42	78.45
680.75	78.48
681.08	78.48
681.41	78.53
681.74	78.68
682.07	78.72
682.399	78.76
682.729	78.75
683.059	78.69
683.388	78.66
683.718	78.68
684.047	78.69
684.376	78.53
684.706	78.4
685.035	78.43
