Data from coltest_Reflection_017.txt Node
Date: Mon Feb 02 14:18:07 EST 2015
User: jamesohanlon
Spectrometer: JAZA0776
Autoset integration time: false
Trigger mode: 0
Integration Time (sec): 1.000000E-1
Scans to average: 10
Electric dark correction enabled: true
Nonlinearity correction enabled: false
Boxcar width: 10
Stray light correction enabled: false
XAxis mode: Wavelengths
Stop averaging: false
Number of Pixels in Spectrum: 2048
>>>>>Begin Spectral Data<<<<<
190.472	149.24
190.851	178.2
191.23	92.28
191.609	68.79
191.988	54.23
192.366	97.62
192.745	74.09
193.124	108.33
193.503	145.23
193.882	116.35
194.26	275.6
194.639	226.38
195.018	180.13
195.397	104.46
195.775	101.54
196.154	76.84
196.532	113.66
196.911	109.73
197.29	119.62
197.668	159.08
198.047	164.15
198.425	214.53
198.803	277.13
199.182	344.7
199.56	-712.27
199.939	4170.73
200.317	965.9
200.695	893.08
201.074	1224.37
201.452	-688.81
201.83	-505.46
202.208	-502.5
202.587	-246.76
202.965	-175.85
203.343	-91.64
203.721	-54.07
204.099	-46.71
204.477	-16.56
204.855	-12.73
205.233	-12.29
205.611	-18.36
205.989	-32.21
206.367	-31.49
206.745	-27.7
207.123	-30.46
207.501	-18.99
207.879	-10.35
208.257	-11.53
208.635	-0.37
209.012	-1.07
209.39	1.58
209.768	2.75
210.146	1.17
210.523	0.61
210.901	1.14
211.278	-1.61
211.656	-9.12
212.034	-6.35
212.411	-16.63
212.789	-14.57
213.166	-18.3
213.544	-17.45
213.921	-21.52
214.299	-12.71
214.676	-14.93
215.053	-10.64
215.431	-15.59
215.808	-7.49
216.185	-1.9
216.563	-3.45
216.94	-7.49
217.317	-10.15
217.694	-2.84
218.072	-1.16
218.449	3.62
218.826	8.78
219.203	7.29
219.58	15.81
219.957	13.7
220.334	17.64
220.711	10.49
221.088	14.19
221.465	12.59
221.842	18.7
222.219	19.72
222.596	23.5
222.973	25.88
223.349	30.11
223.726	34.46
224.103	31.49
224.48	32.12
224.856	30.93
225.233	32
225.61	31.65
225.986	32.06
226.363	32.6
226.74	31.84
227.116	32.51
227.493	32.24
227.869	32.68
228.246	32.76
228.622	33.31
228.999	33.45
229.375	33.69
229.751	33.27
230.128	32.7
230.504	32.48
230.88	32.62
231.257	32.74
231.633	32.32
232.009	33.02
232.385	33.08
232.761	33.39
233.138	33.06
233.514	33.08
233.89	32.77
234.266	32.07
234.642	31.88
235.018	30.99
235.394	30.61
235.77	30.67
236.146	30.14
236.522	30.23
236.898	29.67
237.274	29.32
237.649	29.01
238.025	28.58
238.401	27.97
238.777	27.23
239.152	26.65
239.528	26.31
239.904	25.76
240.279	25.39
240.655	25.18
241.031	25
241.406	24.86
241.782	24.36
242.157	24.22
242.533	23.66
242.908	23.65
243.284	23.43
243.659	23.03
244.034	22.69
244.41	22.51
244.785	22.3
245.16	22.07
245.536	21.91
245.911	21.76
246.286	21.66
246.661	21.56
247.037	21.41
247.412	21.22
247.787	21.05
248.162	20.92
248.537	20.74
248.912	20.62
249.287	20.44
249.662	20.44
250.037	20.48
250.412	20.66
250.787	20.48
251.162	20.42
251.537	20.4
251.911	20.42
252.286	20.29
252.661	20.29
253.036	20.13
253.41	19.9
253.785	19.77
254.16	19.42
254.534	19.24
254.909	19.01
255.284	18.93
255.658	18.95
256.033	18.83
256.407	18.64
256.782	18.5
257.156	18.39
257.53	18.34
257.905	18.22
258.279	18.07
258.654	18.02
259.028	17.92
259.402	17.73
259.776	17.63
260.151	17.53
260.525	17.49
260.899	17.51
261.273	17.52
261.647	17.54
262.021	17.72
262.395	17.73
262.769	17.82
263.143	17.78
263.517	17.56
263.891	17.56
264.265	17.6
264.639	17.58
265.013	17.59
265.387	17.57
265.761	17.55
266.135	17.54
266.508	17.7
266.882	17.74
267.256	17.92
267.629	18.08
268.003	18.21
268.377	18.29
268.75	18.28
269.124	18.32
269.497	18.31
269.871	18.27
270.244	18.25
270.618	18.31
270.991	18.23
271.365	18.4
271.738	18.31
272.111	18.37
272.485	18.36
272.858	18.39
273.231	18.42
273.604	18.46
273.978	18.54
274.351	18.38
274.724	18.44
275.097	18.46
275.47	18.42
275.843	18.34
276.216	18.31
276.589	18.37
276.962	18.49
277.335	18.45
277.708	18.43
278.081	18.43
278.454	18.37
278.827	18.45
279.2	18.41
279.572	18.51
279.945	18.52
280.318	18.59
280.691	18.63
281.063	18.62
281.436	18.62
281.808	18.6
282.181	18.7
282.554	18.63
282.926	18.58
283.299	18.63
283.671	18.57
284.044	18.51
284.416	18.46
284.788	18.35
285.161	18.36
285.533	18.34
285.905	18.37
286.278	18.36
286.65	18.29
287.022	18.24
287.394	18.23
287.766	18.17
288.139	18.14
288.511	18.05
288.883	18.08
289.255	17.99
289.627	17.9
289.999	17.87
290.371	17.8
290.743	17.8
291.115	17.7
291.486	17.74
291.858	17.69
292.23	17.67
292.602	17.65
292.974	17.6
293.345	17.54
293.717	17.41
294.089	17.29
294.46	17.3
294.832	17.33
295.204	17.26
295.575	17.25
295.947	17.19
296.318	17.15
296.69	17.09
297.061	17.12
297.433	17.1
297.804	17.02
298.175	17.07
298.547	16.98
298.918	16.89
299.289	16.83
299.66	16.81
300.032	16.78
300.403	16.71
300.774	16.66
301.145	16.62
301.516	16.62
301.887	16.69
302.258	16.58
302.629	16.43
303	16.37
303.371	16.3
303.742	16.3
304.113	16.34
304.484	16.25
304.855	16.16
305.226	16.15
305.596	16.16
305.967	16.14
306.338	16.12
306.708	16.12
307.079	15.95
307.45	15.95
307.82	15.91
308.191	15.9
308.561	15.87
308.932	15.84
309.302	15.86
309.673	15.78
310.043	15.74
310.414	15.69
310.784	15.62
311.154	15.52
311.525	15.33
311.895	15.16
312.265	15.07
312.635	14.97
313.006	14.81
313.376	14.64
313.746	14.45
314.116	14.3
314.486	14.14
314.856	14.06
315.226	13.81
315.596	13.63
315.966	13.4
316.336	13.25
316.706	13.03
317.076	12.69
317.445	12.41
317.815	12.23
318.185	12.07
318.555	11.9
318.924	11.64
319.294	11.54
319.664	11.45
320.033	11.34
320.403	11.17
320.772	11.02
321.142	10.94
321.511	10.81
321.881	10.63
322.25	10.64
322.62	10.67
322.989	10.61
323.358	10.37
323.728	10.38
324.097	10.32
324.466	10.34
324.836	10.37
325.205	10.36
325.574	10.38
325.943	10.42
326.312	10.41
326.681	10.43
327.05	10.33
327.419	10.2
327.788	10.21
328.157	10.15
328.526	10.11
328.895	10.07
329.264	10.04
329.633	10.02
330.001	9.91
330.37	9.91
330.739	9.89
331.108	9.97
331.476	9.87
331.845	9.83
332.214	9.8
332.582	9.79
332.951	9.8
333.319	9.75
333.688	9.67
334.056	9.65
334.425	9.67
334.793	9.69
335.161	9.65
335.53	9.58
335.898	9.62
336.266	9.64
336.635	9.62
337.003	9.59
337.371	9.63
337.739	9.51
338.107	9.44
338.475	9.42
338.843	9.4
339.212	9.47
339.58	9.39
339.947	9.37
340.315	9.42
340.683	9.35
341.051	9.35
341.419	9.35
341.787	9.36
342.155	9.41
342.522	9.36
342.89	9.44
343.258	9.43
343.625	9.38
343.993	9.34
344.361	9.32
344.728	9.28
345.096	9.28
345.463	9.32
345.831	9.26
346.198	9.25
346.566	9.26
346.933	9.15
347.3	9.14
347.668	9.12
348.035	9.05
348.402	9.07
348.769	9.08
349.137	9.1
349.504	8.97
349.871	8.85
350.238	8.85
350.605	8.79
350.972	8.77
351.339	8.71
351.706	8.73
352.073	8.67
352.44	8.7
352.807	8.7
353.174	8.71
353.54	8.72
353.907	8.72
354.274	8.69
354.641	8.7
355.007	8.7
355.374	8.7
355.741	8.69
356.107	8.71
356.474	8.69
356.84	8.66
357.207	8.69
357.573	8.73
357.94	8.78
358.306	8.79
358.673	8.8
359.039	8.83
359.405	8.81
359.771	8.83
360.138	8.8
360.504	8.77
360.87	8.79
361.236	8.8
361.602	8.81
361.968	8.83
362.335	8.82
362.701	8.82
363.067	8.8
363.432	8.79
363.798	8.78
364.164	8.74
364.53	8.75
364.896	8.79
365.262	8.82
365.628	8.84
365.993	8.8
366.359	8.81
366.725	8.82
367.09	8.84
367.456	8.86
367.821	8.89
368.187	8.92
368.553	8.92
368.918	8.97
369.283	9
369.649	8.98
370.014	9.03
370.38	9.07
370.745	9.1
371.11	9.14
371.475	9.17
371.841	9.27
372.206	9.22
372.571	9.24
372.936	9.21
373.301	9.22
373.666	9.27
374.031	9.27
374.396	9.32
374.761	9.35
375.126	9.38
375.491	9.43
375.856	9.47
376.221	9.52
376.586	9.47
376.95	9.48
377.315	9.58
377.68	9.62
378.044	9.66
378.409	9.67
378.774	9.74
379.138	9.75
379.503	9.76
379.867	9.78
380.232	9.86
380.596	9.92
380.961	9.94
381.325	10.02
381.689	10.03
382.054	10.05
382.418	10.11
382.782	10.13
383.146	10.18
383.51	10.23
383.875	10.26
384.239	10.35
384.603	10.39
384.967	10.37
385.331	10.41
385.695	10.42
386.059	10.46
386.423	10.42
386.786	10.45
387.15	10.45
387.514	10.52
387.878	10.46
388.242	10.41
388.605	10.37
388.969	10.38
389.333	10.39
389.696	10.43
390.06	10.43
390.423	10.48
390.787	10.46
391.15	10.48
391.514	10.49
391.877	10.46
392.241	10.42
392.604	10.43
392.967	10.44
393.331	10.46
393.694	10.49
394.057	10.49
394.42	10.47
394.783	10.47
395.146	10.48
395.51	10.55
395.873	10.62
396.236	10.68
396.599	10.65
396.962	10.69
397.324	10.68
397.687	10.7
398.05	10.68
398.413	10.66
398.776	10.67
399.138	10.7
399.501	10.72
399.864	10.77
400.227	10.76
400.589	10.75
400.952	10.74
401.314	10.77
401.677	10.8
402.039	10.86
402.402	10.88
402.764	10.85
403.126	10.82
403.489	10.81
403.851	10.83
404.213	10.86
404.576	10.87
404.938	10.9
405.3	10.92
405.662	10.92
406.024	10.96
406.386	10.95
406.748	10.95
407.11	11.02
407.472	11.02
407.834	11.02
408.196	11.04
408.558	11.1
408.92	11.07
409.282	11.08
409.643	11.1
410.005	11.14
410.367	11.17
410.728	11.16
411.09	11.17
411.452	11.18
411.813	11.25
412.175	11.28
412.536	11.29
412.898	11.33
413.259	11.37
413.62	11.39
413.982	11.42
414.343	11.41
414.704	11.41
415.066	11.45
415.427	11.46
415.788	11.46
416.149	11.48
416.51	11.46
416.871	11.45
417.232	11.43
417.593	11.42
417.954	11.46
418.315	11.46
418.676	11.48
419.037	11.48
419.398	11.46
419.759	11.48
420.119	11.48
420.48	11.49
420.841	11.52
421.201	11.55
421.562	11.53
421.923	11.58
422.283	11.56
422.644	11.57
423.004	11.59
423.365	11.6
423.725	11.6
424.086	11.63
424.446	11.7
424.806	11.72
425.166	11.74
425.527	11.75
425.887	11.8
426.247	11.8
426.607	11.83
426.967	11.84
427.327	11.82
427.687	11.83
428.047	11.85
428.407	11.84
428.767	11.83
429.127	11.87
429.487	11.87
429.847	11.91
430.207	11.92
430.566	11.95
430.926	11.97
431.286	11.98
431.645	11.99
432.005	11.95
432.365	11.96
432.724	11.97
433.084	12
433.443	12.02
433.803	12.05
434.162	12.04
434.521	12.05
434.881	12.08
435.24	12.08
435.599	12.05
435.958	12.09
436.318	12.08
436.677	12.09
437.036	12.09
437.395	12.09
437.754	12.1
438.113	12.12
438.472	12.12
438.831	12.12
439.19	12.16
439.549	12.17
439.908	12.17
440.266	12.19
440.625	12.21
440.984	12.21
441.343	12.24
441.701	12.27
442.06	12.29
442.418	12.31
442.777	12.32
443.136	12.36
443.494	12.34
443.852	12.35
444.211	12.34
444.569	12.33
444.928	12.32
445.286	12.29
445.644	12.3
446.002	12.31
446.361	12.33
446.719	12.32
447.077	12.32
447.435	12.33
447.793	12.32
448.151	12.3
448.509	12.27
448.867	12.23
449.225	12.22
449.583	12.23
449.94	12.23
450.298	12.23
450.656	12.22
451.014	12.22
451.371	12.23
451.729	12.26
452.087	12.33
452.444	12.36
452.802	12.44
453.159	12.42
453.517	12.45
453.874	12.42
454.232	12.4
454.589	12.42
454.946	12.42
455.304	12.45
455.661	12.47
456.018	12.49
456.375	12.53
456.732	12.58
457.09	12.6
457.447	12.6
457.804	12.6
458.161	12.62
458.518	12.66
458.875	12.66
459.231	12.68
459.588	12.65
459.945	12.65
460.302	12.64
460.659	12.66
461.015	12.62
461.372	12.64
461.729	12.67
462.085	12.7
462.442	12.71
462.798	12.72
463.155	12.73
463.511	12.78
463.868	12.81
464.224	12.79
464.58	12.79
464.937	12.82
465.293	12.83
465.649	12.86
466.005	12.86
466.362	12.87
466.718	12.86
467.074	12.88
467.43	12.91
467.786	12.91
468.142	12.91
468.498	12.99
468.854	13.03
469.21	13.04
469.565	13.05
469.921	13.06
470.277	13.05
470.633	13.06
470.988	13.05
471.344	13.03
471.7	13.03
472.055	13.03
472.411	13.03
472.766	13.04
473.122	13.04
473.477	13.01
473.832	13.02
474.188	13.02
474.543	13.04
474.898	13.03
475.254	13.02
475.609	13.01
475.964	13
476.319	12.96
476.674	12.95
477.029	12.95
477.384	12.96
477.739	12.97
478.094	12.99
478.449	12.98
478.804	12.98
479.159	12.99
479.513	12.94
479.868	12.92
480.223	12.87
480.578	12.83
480.932	12.82
481.287	12.82
481.641	12.81
481.996	12.8
482.35	12.81
482.705	12.82
483.059	12.82
483.414	12.82
483.768	12.83
484.122	12.84
484.477	12.83
484.831	12.82
485.185	12.81
485.539	12.81
485.893	12.8
486.247	12.79
486.601	12.79
486.955	12.81
487.309	12.83
487.663	12.84
488.017	12.87
488.371	12.89
488.725	12.91
489.078	12.94
489.432	12.95
489.786	12.96
490.14	12.97
490.493	12.99
490.847	13
491.2	13
491.554	12.99
491.907	13.01
492.261	13.04
492.614	13.07
492.967	13.08
493.321	13.11
493.674	13.13
494.027	13.15
494.38	13.16
494.734	13.18
495.087	13.2
495.44	13.23
495.793	13.25
496.146	13.26
496.499	13.24
496.852	13.22
497.205	13.2
497.558	13.18
497.91	13.18
498.263	13.2
498.616	13.23
498.969	13.24
499.321	13.26
499.674	13.28
500.027	13.27
500.379	13.28
500.732	13.3
501.084	13.3
501.436	13.32
501.789	13.32
502.141	13.31
502.494	13.34
502.846	13.32
503.198	13.31
503.55	13.3
503.902	13.3
504.255	13.31
504.607	13.33
504.959	13.35
505.311	13.37
505.663	13.38
506.015	13.37
506.367	13.38
506.718	13.39
507.07	13.4
507.422	13.39
507.774	13.4
508.125	13.38
508.477	13.41
508.829	13.42
509.18	13.42
509.532	13.43
509.883	13.41
510.235	13.43
510.586	13.43
510.938	13.46
511.289	13.47
511.64	13.52
511.992	13.53
512.343	13.52
512.694	13.5
513.045	13.5
513.396	13.51
513.747	13.51
514.098	13.47
514.449	13.44
514.8	13.44
515.151	13.44
515.502	13.45
515.853	13.42
516.204	13.42
516.555	13.42
516.905	13.43
517.256	13.46
517.607	13.47
517.957	13.46
518.308	13.44
518.658	13.44
519.009	13.43
519.359	13.43
519.71	13.45
520.06	13.46
520.41	13.48
520.761	13.51
521.111	13.52
521.461	13.55
521.811	13.54
522.162	13.55
522.512	13.55
522.862	13.53
523.212	13.56
523.562	13.55
523.912	13.57
524.262	13.58
524.611	13.57
524.961	13.56
525.311	13.58
525.661	13.59
526.01	13.61
526.36	13.6
526.71	13.61
527.059	13.61
527.409	13.61
527.758	13.62
528.108	13.61
528.457	13.61
528.807	13.62
529.156	13.65
529.505	13.65
529.855	13.67
530.204	13.69
530.553	13.7
530.902	13.71
531.251	13.72
531.6	13.74
531.949	13.76
532.298	13.78
532.647	13.79
532.996	13.82
533.345	13.81
533.694	13.83
534.043	13.84
534.391	13.88
534.74	13.89
535.089	13.92
535.437	13.93
535.786	13.96
536.135	13.97
536.483	13.98
536.832	14.03
537.18	14.05
537.528	14.09
537.877	14.1
538.225	14.12
538.573	14.16
538.921	14.17
539.27	14.19
539.618	14.2
539.966	14.24
540.314	14.27
540.662	14.32
541.01	14.34
541.358	14.38
541.706	14.4
542.054	14.41
542.402	14.43
542.749	14.45
543.097	14.47
543.445	14.48
543.792	14.51
544.14	14.54
544.488	14.6
544.835	14.63
545.183	14.67
545.53	14.7
545.878	14.7
546.225	14.73
546.572	14.79
546.92	14.83
547.267	14.86
547.614	14.89
547.961	14.91
548.308	14.96
548.655	14.99
549.002	15.02
549.349	15.06
549.696	15.07
550.043	15.14
550.39	15.18
550.737	15.24
551.084	15.28
551.431	15.34
551.777	15.37
552.124	15.41
552.471	15.48
552.817	15.57
553.164	15.66
553.51	15.74
553.857	15.79
554.203	15.87
554.55	15.9
554.896	15.95
555.242	16
555.589	16.04
555.935	16.12
556.281	16.19
556.627	16.23
556.973	16.33
557.319	16.36
557.665	16.44
558.011	16.52
558.357	16.61
558.703	16.62
559.049	16.68
559.395	16.76
559.741	16.8
560.086	16.87
560.432	16.95
560.778	17
561.123	17.06
561.469	17.15
561.815	17.26
562.16	17.36
562.506	17.48
562.851	17.59
563.196	17.69
563.542	17.8
563.887	17.92
564.232	18.01
564.577	18.15
564.922	18.28
565.268	18.39
565.613	18.51
565.958	18.68
566.303	18.79
566.648	18.9
566.993	19.05
567.337	19.16
567.682	19.25
568.027	19.42
568.372	19.57
568.717	19.71
569.061	19.85
569.406	20.03
569.75	20.19
570.095	20.32
570.439	20.46
570.784	20.59
571.128	20.74
571.473	20.93
571.817	21.05
572.161	21.18
572.505	21.34
572.85	21.49
573.194	21.62
573.538	21.78
573.882	21.96
574.226	22.14
574.57	22.35
574.914	22.55
575.258	22.72
575.602	22.94
575.946	23.11
576.289	23.33
576.633	23.55
576.977	23.79
577.32	24.06
577.664	24.29
578.008	24.54
578.351	24.82
578.695	25.07
579.038	25.39
579.382	25.68
579.725	25.96
580.068	26.23
580.411	26.54
580.755	26.86
581.098	27.17
581.441	27.45
581.784	27.71
582.127	28.05
582.47	28.42
582.813	28.69
583.156	29.04
583.499	29.4
583.842	29.72
584.185	30.04
584.527	30.36
584.87	30.72
585.213	31.11
585.556	31.43
585.898	31.8
586.241	32.14
586.583	32.51
586.926	32.89
587.268	33.25
587.61	33.65
587.953	34.02
588.295	34.42
588.637	34.8
588.98	35.21
589.322	35.53
589.664	35.89
590.006	36.32
590.348	36.7
590.69	37.09
591.032	37.51
591.374	37.96
591.716	38.41
592.058	38.84
592.399	39.3
592.741	39.8
593.083	40.29
593.424	40.82
593.766	41.34
594.108	41.83
594.449	42.35
594.791	42.79
595.132	43.25
595.474	43.73
595.815	44.19
596.156	44.65
596.497	45.09
596.839	45.51
597.18	45.98
597.521	46.4
597.862	46.88
598.203	47.36
598.544	47.8
598.885	48.23
599.226	48.75
599.567	49.21
599.908	49.77
600.249	50.35
600.589	50.93
600.93	51.6
601.271	52.18
601.611	52.7
601.952	53.23
602.292	53.77
602.633	54.23
602.973	54.65
603.314	55.08
603.654	55.55
603.995	55.96
604.335	56.44
604.675	56.88
605.015	57.26
605.355	57.64
605.695	58.04
606.036	58.55
606.376	59.01
606.715	59.49
607.055	59.85
607.395	60.25
607.735	60.65
608.075	61.02
608.415	61.53
608.754	62.03
609.094	62.45
609.434	62.85
609.773	63.25
610.113	63.67
610.452	64.04
610.792	64.4
611.131	64.78
611.471	65.05
611.81	65.42
612.149	65.82
612.488	66.21
612.828	66.6
613.167	66.9
613.506	67.22
613.845	67.53
614.184	67.98
614.523	68.28
614.862	68.63
615.201	68.89
615.539	69.12
615.878	69.39
616.217	69.79
616.556	70.03
616.894	70.35
617.233	70.65
617.571	70.96
617.91	71.25
618.248	71.47
618.587	71.76
618.925	72.01
619.264	72.22
619.602	72.45
619.94	72.64
620.278	72.88
620.617	73.11
620.955	73.39
621.293	73.6
621.631	73.91
621.969	74.14
622.307	74.42
622.645	74.7
622.983	74.95
623.32	75.11
623.658	75.45
623.996	75.65
624.334	75.84
624.671	76.06
625.009	76.26
625.346	76.48
625.684	76.67
626.021	76.92
626.359	77.12
626.696	77.27
627.033	77.48
627.371	77.64
627.708	77.87
628.045	78.01
628.382	78.2
628.719	78.33
629.056	78.47
629.394	78.64
629.73	78.81
630.067	78.95
630.404	79.11
630.741	79.2
631.078	79.3
631.415	79.52
631.751	79.57
632.088	79.78
632.425	79.98
632.761	80.12
633.098	80.1
633.434	80.21
633.771	80.41
634.107	80.47
634.443	80.58
634.78	80.6
635.116	80.74
635.452	80.8
635.788	80.93
636.124	80.97
636.46	81.11
636.797	81.1
637.133	81.27
637.468	81.46
637.804	81.54
638.14	81.67
638.476	81.75
638.812	81.88
639.147	82.01
639.483	82.11
639.819	82.13
640.154	82.26
640.49	82.38
640.825	82.39
641.161	82.53
641.496	82.66
641.832	82.71
642.167	82.86
642.502	82.94
642.837	82.95
643.172	83.12
643.508	83.16
643.843	83.25
644.178	83.23
644.513	83.23
644.848	83.37
645.183	83.52
645.517	83.47
645.852	83.5
646.187	83.35
646.522	83.35
646.856	83.46
647.191	83.55
647.526	83.5
647.86	83.49
648.195	83.53
648.529	83.58
648.863	83.69
649.198	83.71
649.532	83.8
649.866	83.9
650.201	83.89
650.535	83.91
650.869	83.98
651.203	84
651.537	83.97
651.871	83.93
652.205	83.76
652.539	83.8
652.873	83.86
653.206	84.01
653.54	84.06
653.874	84.02
654.208	84.07
654.541	84.12
654.875	84.23
655.208	84.35
655.542	84.33
655.875	84.47
656.209	84.45
656.542	84.45
656.875	84.43
657.208	84.53
657.542	84.65
657.875	84.63
658.208	84.7
658.541	84.74
658.874	84.76
659.207	84.88
659.54	84.95
659.873	84.95
660.206	84.88
660.538	84.9
660.871	84.94
661.204	84.93
661.536	84.94
661.869	84.9
662.202	84.89
662.534	84.92
662.867	84.81
663.199	84.85
663.531	84.85
663.864	84.92
664.196	84.85
664.528	84.78
664.86	84.71
665.193	84.7
