Data from coltest_Reflection_020.txt Node
Date: Mon Feb 02 14:21:34 EST 2015
User: jamesohanlon
Spectrometer: JAZA0776
Autoset integration time: false
Trigger mode: 0
Integration Time (sec): 1.000000E-1
Scans to average: 10
Electric dark correction enabled: true
Nonlinearity correction enabled: false
Boxcar width: 10
Stray light correction enabled: false
XAxis mode: Wavelengths
Stop averaging: false
Number of Pixels in Spectrum: 2048
>>>>>Begin Spectral Data<<<<<
190.472	61.7
190.851	86.43
191.23	113.77
191.609	113.86
191.988	56.12
192.366	85.73
192.745	85.02
193.124	1200
193.503	-265.12
193.882	-49.15
194.26	-18.71
194.639	-238.33
195.018	-827.98
195.397	-309.22
195.775	-277.99
196.154	-427.98
196.532	355.73
196.911	851.45
197.29	206.7
197.668	148.88
198.047	160.66
198.425	155.21
198.803	140.85
199.182	94.41
199.56	88.35
199.939	109.49
200.317	91.49
200.695	77.33
201.074	92.45
201.452	90.08
201.83	80.76
202.208	83.4
202.587	59.01
202.965	63.08
203.343	66.15
203.721	67.92
204.099	66.18
204.477	55.15
204.855	58.08
205.233	74.96
205.611	90.46
205.989	82.76
206.367	91.02
206.745	87.6
207.123	87.67
207.501	83.05
207.879	65.89
208.257	68.21
208.635	71.27
209.012	54.79
209.39	65.38
209.768	60.99
210.146	57.43
210.523	62.88
210.901	62.14
211.278	60.56
211.656	60.89
212.034	63.28
212.411	67.58
212.789	67.77
213.166	56.88
213.544	44.91
213.921	48.77
214.299	46.69
214.676	46.85
215.053	48.21
215.431	49.65
215.808	51.27
216.185	48.71
216.563	46.05
216.94	54.51
217.317	52.7
217.694	49.27
218.072	45.76
218.449	47.75
218.826	46.06
219.203	45.52
219.58	45.61
219.957	43.75
220.334	41.57
220.711	39.57
221.088	38.08
221.465	42.98
221.842	39.57
222.219	35.76
222.596	36.34
222.973	35.41
223.349	36.91
223.726	38.66
224.103	39.28
224.48	39.2
224.856	37.8
225.233	35.9
225.61	36.83
225.986	34.97
226.363	34.21
226.74	34.23
227.116	34.02
227.493	33.08
227.869	33.92
228.246	33.99
228.622	33.93
228.999	34.34
229.375	33.99
229.751	33.38
230.128	33.4
230.504	32.67
230.88	32.21
231.257	31.95
231.633	32.01
232.009	32.27
232.385	31.88
232.761	31.99
233.138	31.4
233.514	30.76
233.89	31.7
234.266	31.3
234.642	30.99
235.018	30.44
235.394	29.56
235.77	29.13
236.146	28.81
236.522	28.31
236.898	27.96
237.274	27.76
237.649	27.54
238.025	27.43
238.401	27.39
238.777	27.6
239.152	27.26
239.528	27
239.904	26.88
240.279	26.83
240.655	26.66
241.031	26.64
241.406	26.33
241.782	26.09
242.157	25.98
242.533	25.71
242.908	25.28
243.284	25.22
243.659	24.95
244.034	24.8
244.41	24.7
244.785	24.62
245.16	24.51
245.536	24.51
245.911	24.31
246.286	24.13
246.661	23.94
247.037	23.64
247.412	23.36
247.787	23.06
248.162	22.9
248.537	22.71
248.912	22.61
249.287	22.63
249.662	22.51
250.037	22.39
250.412	22.22
250.787	22.29
251.162	22.22
251.537	22
251.911	21.8
252.286	21.6
252.661	21.32
253.036	20.97
253.41	20.79
253.785	20.6
254.16	20.55
254.534	20.35
254.909	20.47
255.284	20.48
255.658	20.28
256.033	20.09
256.407	19.78
256.782	19.62
257.156	19.46
257.53	19.33
257.905	19.33
258.279	19.38
258.654	19.34
259.028	19.41
259.402	19.39
259.776	19.38
260.151	19.36
260.525	19.36
260.899	19.36
261.273	19.38
261.647	19.49
262.021	19.52
262.395	19.58
262.769	19.55
263.143	19.46
263.517	19.55
263.891	19.62
264.265	19.8
264.639	19.84
265.013	19.99
265.387	20.1
265.761	20.03
266.135	19.97
266.508	19.99
266.882	19.76
267.256	19.81
267.629	19.75
268.003	19.77
268.377	19.75
268.75	19.87
269.124	19.81
269.497	19.7
269.871	19.61
270.244	19.58
270.618	19.63
270.991	19.72
271.365	19.77
271.738	19.68
272.111	19.71
272.485	19.7
272.858	19.55
273.231	19.57
273.604	19.63
273.978	19.72
274.351	19.69
274.724	19.78
275.097	19.81
275.47	19.83
275.843	19.78
276.216	19.8
276.589	19.76
276.962	19.83
277.335	19.93
277.708	20.04
278.081	19.89
278.454	19.86
278.827	19.79
279.2	19.83
279.572	19.83
279.945	19.78
280.318	19.7
280.691	19.78
281.063	19.64
281.436	19.61
281.808	19.55
282.181	19.54
282.554	19.54
282.926	19.46
283.299	19.41
283.671	19.41
284.044	19.47
284.416	19.44
284.788	19.37
285.161	19.28
285.533	19.19
285.905	19.26
286.278	19.27
286.65	19.27
287.022	19.16
287.394	19.1
287.766	19.02
288.139	19.07
288.511	19.01
288.883	19.12
289.255	19.13
289.627	19.08
289.999	19.09
290.371	18.98
290.743	18.95
291.115	18.91
291.486	18.88
291.858	18.67
292.23	18.58
292.602	18.5
292.974	18.42
293.345	18.4
293.717	18.31
294.089	18.15
294.46	18.09
294.832	18.03
295.204	18.02
295.575	17.96
295.947	17.9
296.318	17.85
296.69	17.73
297.061	17.59
297.433	17.55
297.804	17.49
298.175	17.44
298.547	17.38
298.918	17.37
299.289	17.36
299.66	17.34
300.032	17.32
300.403	17.31
300.774	17.31
301.145	17.22
301.516	17.12
301.887	17.16
302.258	17.11
302.629	17.06
303	16.99
303.371	16.99
303.742	16.98
304.113	16.99
304.484	16.97
304.855	17.01
305.226	16.96
305.596	16.88
305.967	16.94
306.338	16.94
306.708	16.87
307.079	16.77
307.45	16.86
307.82	16.8
308.191	16.75
308.561	16.77
308.932	16.71
309.302	16.75
309.673	16.71
310.043	16.65
310.414	16.54
310.784	16.57
311.154	16.5
311.525	16.46
311.895	16.4
312.265	16.28
312.635	16.21
313.006	16.14
313.376	16.13
313.746	16
314.116	15.99
314.486	15.91
314.856	15.82
315.226	15.7
315.596	15.64
315.966	15.58
316.336	15.44
316.706	15.51
317.076	15.48
317.445	15.4
317.815	15.36
318.185	15.29
318.555	15.19
318.924	15.17
319.294	15.03
319.664	14.97
320.033	14.97
320.403	14.96
320.772	15.05
321.142	14.97
321.511	14.95
321.881	14.82
322.25	14.77
322.62	14.79
322.989	14.75
323.358	14.7
323.728	14.68
324.097	14.63
324.466	14.56
324.836	14.47
325.205	14.4
325.574	14.34
325.943	14.38
326.312	14.37
326.681	14.33
327.05	14.32
327.419	14.24
327.788	14.21
328.157	14.13
328.526	14.02
328.895	14.01
329.264	14.04
329.633	14.11
330.001	14.16
330.37	14.12
330.739	14.02
331.108	14.05
331.476	14
331.845	13.92
332.214	13.88
332.582	13.82
332.951	13.81
333.319	13.77
333.688	13.77
334.056	13.72
334.425	13.67
334.793	13.63
335.161	13.7
335.53	13.68
335.898	13.74
336.266	13.73
336.635	13.73
337.003	13.67
337.371	13.61
337.739	13.61
338.107	13.63
338.475	13.67
338.843	13.54
339.212	13.48
339.58	13.54
339.947	13.45
340.315	13.54
340.683	13.55
341.051	13.5
341.419	13.45
341.787	13.44
342.155	13.4
342.522	13.38
342.89	13.27
343.258	13.22
343.625	13.1
343.993	12.94
344.361	12.87
344.728	12.85
345.096	12.81
345.463	12.73
345.831	12.68
346.198	12.68
346.566	12.72
346.933	12.77
347.3	12.77
347.668	12.75
348.035	12.72
348.402	12.72
348.769	12.76
349.137	12.72
349.504	12.7
349.871	12.72
350.238	12.73
350.605	12.75
350.972	12.8
351.339	12.76
351.706	12.87
352.073	12.9
352.44	12.85
352.807	12.81
353.174	12.79
353.54	12.75
353.907	12.71
354.274	12.65
354.641	12.6
355.007	12.59
355.374	12.62
355.741	12.59
356.107	12.57
356.474	12.51
356.84	12.53
357.207	12.53
357.573	12.54
357.94	12.5
358.306	12.52
358.673	12.5
359.039	12.56
359.405	12.59
359.771	12.55
360.138	12.56
360.504	12.56
360.87	12.58
361.236	12.56
361.602	12.52
361.968	12.58
362.335	12.58
362.701	12.57
363.067	12.56
363.432	12.55
363.798	12.54
364.164	12.57
364.53	12.57
364.896	12.58
365.262	12.55
365.628	12.6
365.993	12.62
366.359	12.61
366.725	12.59
367.09	12.49
367.456	12.5
367.821	12.5
368.187	12.48
368.553	12.44
368.918	12.49
369.283	12.54
369.649	12.5
370.014	12.51
370.38	12.53
370.745	12.53
371.11	12.51
371.475	12.47
371.841	12.49
372.206	12.47
372.571	12.4
372.936	12.44
373.301	12.43
373.666	12.39
374.031	12.36
374.396	12.35
374.761	12.41
375.126	12.37
375.491	12.35
375.856	12.38
376.221	12.4
376.586	12.34
376.95	12.33
377.315	12.31
377.68	12.32
378.044	12.28
378.409	12.31
378.774	12.33
379.138	12.32
379.503	12.35
379.867	12.3
380.232	12.29
380.596	12.29
380.961	12.29
381.325	12.28
381.689	12.33
382.054	12.35
382.418	12.36
382.782	12.4
383.146	12.42
383.51	12.35
383.875	12.33
384.239	12.37
384.603	12.34
384.967	12.37
385.331	12.33
385.695	12.31
386.059	12.28
386.423	12.3
386.786	12.29
387.15	12.22
387.514	12.27
387.878	12.31
388.242	12.29
388.605	12.28
388.969	12.34
389.333	12.26
389.696	12.24
390.06	12.22
390.423	12.22
390.787	12.19
391.15	12.26
391.514	12.27
391.877	12.23
392.241	12.27
392.604	12.29
392.967	12.29
393.331	12.34
393.694	12.34
394.057	12.32
394.42	12.37
394.783	12.38
395.146	12.39
395.51	12.4
395.873	12.39
396.236	12.39
396.599	12.35
396.962	12.38
397.324	12.36
397.687	12.33
398.05	12.33
398.413	12.35
398.776	12.33
399.138	12.3
399.501	12.33
399.864	12.33
400.227	12.32
400.589	12.31
400.952	12.31
401.314	12.31
401.677	12.35
402.039	12.34
402.402	12.39
402.764	12.39
403.126	12.37
403.489	12.36
403.851	12.38
404.213	12.37
404.576	12.35
404.938	12.34
405.3	12.4
405.662	12.39
406.024	12.36
406.386	12.35
406.748	12.33
407.11	12.32
407.472	12.29
407.834	12.26
408.196	12.28
408.558	12.23
408.92	12.25
409.282	12.23
409.643	12.23
410.005	12.18
410.367	12.2
410.728	12.2
411.09	12.2
411.452	12.2
411.813	12.23
412.175	12.23
412.536	12.28
412.898	12.3
413.259	12.3
413.62	12.3
413.982	12.32
414.343	12.36
414.704	12.36
415.066	12.39
415.427	12.41
415.788	12.41
416.149	12.42
416.51	12.39
416.871	12.38
417.232	12.35
417.593	12.33
417.954	12.35
418.315	12.37
418.676	12.37
419.037	12.38
419.398	12.36
419.759	12.36
420.119	12.36
420.48	12.34
420.841	12.34
421.201	12.35
421.562	12.35
421.923	12.36
422.283	12.36
422.644	12.36
423.004	12.33
423.365	12.34
423.725	12.36
424.086	12.36
424.446	12.4
424.806	12.4
425.166	12.45
425.527	12.43
425.887	12.41
426.247	12.42
426.607	12.39
426.967	12.39
427.327	12.42
427.687	12.39
428.047	12.39
428.407	12.38
428.767	12.38
429.127	12.36
429.487	12.36
429.847	12.36
430.207	12.37
430.566	12.43
430.926	12.42
431.286	12.4
431.645	12.4
432.005	12.38
432.365	12.41
432.724	12.39
433.084	12.35
433.443	12.39
433.803	12.37
434.162	12.38
434.521	12.38
434.881	12.37
435.24	12.37
435.599	12.38
435.958	12.4
436.318	12.4
436.677	12.46
437.036	12.47
437.395	12.47
437.754	12.44
438.113	12.43
438.472	12.44
438.831	12.45
439.19	12.47
439.549	12.47
439.908	12.45
440.266	12.44
440.625	12.47
440.984	12.45
441.343	12.47
441.701	12.5
442.06	12.52
442.418	12.54
442.777	12.57
443.136	12.6
443.494	12.63
443.852	12.64
444.211	12.61
444.569	12.6
444.928	12.61
445.286	12.66
445.644	12.66
446.002	12.7
446.361	12.73
446.719	12.74
447.077	12.73
447.435	12.73
447.793	12.74
448.151	12.75
448.509	12.76
448.867	12.78
449.225	12.77
449.583	12.77
449.94	12.78
450.298	12.79
450.656	12.78
451.014	12.76
451.371	12.8
451.729	12.81
452.087	12.85
452.444	12.88
452.802	12.89
453.159	12.92
453.517	12.88
453.874	12.87
454.232	12.87
454.589	12.92
454.946	12.93
455.304	12.94
455.661	12.94
456.018	12.95
456.375	12.95
456.732	12.99
457.09	13
457.447	13.01
457.804	13.02
458.161	13.04
458.518	13.05
458.875	13.02
459.231	13
459.588	13
459.945	12.98
460.302	12.93
460.659	12.89
461.015	12.91
461.372	12.92
461.729	12.92
462.085	12.9
462.442	12.93
462.798	12.95
463.155	12.96
463.511	12.96
463.868	12.95
464.224	12.96
464.58	12.97
464.937	12.97
465.293	12.95
465.649	12.97
466.005	12.96
466.362	12.97
466.718	13.01
467.074	13.03
467.43	13.03
467.786	13.08
468.142	13.12
468.498	13.12
468.854	13.13
469.21	13.12
469.565	13.16
469.921	13.16
470.277	13.14
470.633	13.14
470.988	13.14
471.344	13.14
471.7	13.1
472.055	13.1
472.411	13.1
472.766	13.11
473.122	13.09
473.477	13.11
473.832	13.13
474.188	13.13
474.543	13.16
474.898	13.17
475.254	13.18
475.609	13.14
475.964	13.14
476.319	13.12
476.674	13.13
477.029	13.08
477.384	13.1
477.739	13.07
478.094	13.08
478.449	13.08
478.804	13.07
479.159	13.03
479.513	12.99
479.868	12.94
480.223	12.89
480.578	12.88
480.932	12.9
481.287	12.9
481.641	12.91
481.996	12.89
482.35	12.92
482.705	12.91
483.059	12.91
483.414	12.89
483.768	12.89
484.122	12.88
484.477	12.88
484.831	12.89
485.185	12.91
485.539	12.92
485.893	12.92
486.247	12.94
486.601	12.95
486.955	12.97
487.309	12.99
487.663	13.01
488.017	13.01
488.371	13
488.725	13.01
489.078	13
489.432	13.02
489.786	13.02
490.14	13.02
490.493	13.03
490.847	13.05
491.2	13.06
491.554	13.09
491.907	13.12
492.261	13.12
492.614	13.11
492.967	13.1
493.321	13.1
493.674	13.13
494.027	13.17
494.38	13.2
494.734	13.23
495.087	13.26
495.44	13.32
495.793	13.35
496.146	13.38
496.499	13.39
496.852	13.39
497.205	13.39
497.558	13.41
497.91	13.43
498.263	13.48
498.616	13.5
498.969	13.52
499.321	13.52
499.674	13.51
500.027	13.52
500.379	13.54
500.732	13.56
501.084	13.56
501.436	13.55
501.789	13.53
502.141	13.52
502.494	13.52
502.846	13.5
503.198	13.51
503.55	13.5
503.902	13.52
504.255	13.54
504.607	13.56
504.959	13.57
505.311	13.57
505.663	13.55
506.015	13.55
506.367	13.52
506.718	13.51
507.07	13.53
507.422	13.57
507.774	13.58
508.125	13.6
508.477	13.58
508.829	13.57
509.18	13.58
509.532	13.59
509.883	13.61
510.235	13.63
510.586	13.63
510.938	13.62
511.289	13.61
511.64	13.58
511.992	13.57
512.343	13.58
512.694	13.58
513.045	13.58
513.396	13.56
513.747	13.58
514.098	13.59
514.449	13.58
514.8	13.54
515.151	13.52
515.502	13.52
515.853	13.53
516.204	13.55
516.555	13.54
516.905	13.54
517.256	13.55
517.607	13.53
517.957	13.55
518.308	13.57
518.658	13.58
519.009	13.6
519.359	13.6
519.71	13.58
520.06	13.58
520.41	13.58
520.761	13.59
521.111	13.59
521.461	13.58
521.811	13.58
522.162	13.59
522.512	13.61
522.862	13.59
523.212	13.6
523.562	13.6
523.912	13.6
524.262	13.6
524.611	13.59
524.961	13.57
525.311	13.57
525.661	13.56
526.01	13.58
526.36	13.6
526.71	13.63
527.059	13.63
527.409	13.65
527.758	13.67
528.108	13.67
528.457	13.68
528.807	13.7
529.156	13.7
529.505	13.71
529.855	13.72
530.204	13.74
530.553	13.76
530.902	13.77
531.251	13.81
531.6	13.83
531.949	13.86
532.298	13.91
532.647	13.93
532.996	13.95
533.345	13.95
533.694	13.96
534.043	13.97
534.391	14
534.74	14.01
535.089	14
535.437	14.03
535.786	14.05
536.135	14.06
536.483	14.08
536.832	14.1
537.18	14.11
537.528	14.12
537.877	14.12
538.225	14.11
538.573	14.12
538.921	14.14
539.27	14.15
539.618	14.17
539.966	14.2
540.314	14.24
540.662	14.27
541.01	14.29
541.358	14.29
541.706	14.31
542.054	14.34
542.402	14.36
542.749	14.37
543.097	14.37
543.445	14.41
543.792	14.43
544.14	14.48
544.488	14.53
544.835	14.58
545.183	14.62
545.53	14.68
545.878	14.71
546.225	14.74
546.572	14.78
546.92	14.79
547.267	14.83
547.614	14.85
547.961	14.9
548.308	14.93
548.655	14.97
549.002	15.02
549.349	15.05
549.696	15.12
550.043	15.16
550.39	15.23
550.737	15.29
551.084	15.35
551.431	15.38
551.777	15.42
552.124	15.46
552.471	15.54
552.817	15.59
553.164	15.65
553.51	15.68
553.857	15.71
554.203	15.76
554.55	15.82
554.896	15.88
555.242	15.91
555.589	15.95
555.935	15.99
556.281	16.06
556.627	16.13
556.973	16.21
557.319	16.27
557.665	16.33
558.011	16.39
558.357	16.46
558.703	16.53
559.049	16.63
559.395	16.75
559.741	16.81
560.086	16.87
560.432	16.97
560.778	17.09
561.123	17.18
561.469	17.26
561.815	17.35
562.16	17.42
562.506	17.52
562.851	17.65
563.196	17.8
563.542	17.9
563.887	18.02
564.232	18.12
564.577	18.23
564.922	18.34
565.268	18.46
565.613	18.58
565.958	18.71
566.303	18.79
566.648	18.92
566.993	19.05
567.337	19.18
567.682	19.29
568.027	19.42
568.372	19.55
568.717	19.7
569.061	19.81
569.406	20
569.75	20.16
570.095	20.31
570.439	20.46
570.784	20.62
571.128	20.76
571.473	20.9
571.817	21.08
572.161	21.23
572.505	21.41
572.85	21.57
573.194	21.74
573.538	21.91
573.882	22.07
574.226	22.25
574.57	22.43
574.914	22.63
575.258	22.82
575.602	23.04
575.946	23.25
576.289	23.5
576.633	23.71
576.977	23.92
577.32	24.16
577.664	24.34
578.008	24.56
578.351	24.83
578.695	25.09
579.038	25.37
579.382	25.66
579.725	25.91
580.068	26.22
580.411	26.49
580.755	26.8
581.098	27.06
581.441	27.32
581.784	27.59
582.127	27.9
582.47	28.19
582.813	28.47
583.156	28.75
583.499	29.05
583.842	29.4
584.185	29.74
584.527	30.05
584.87	30.43
585.213	30.82
585.556	31.15
585.898	31.53
586.241	31.92
586.583	32.28
586.926	32.63
587.268	33
587.61	33.39
587.953	33.79
588.295	34.21
588.637	34.6
588.98	34.98
589.322	35.38
589.664	35.78
590.006	36.18
590.348	36.63
590.69	37.06
591.032	37.46
591.374	37.87
591.716	38.27
592.058	38.73
592.399	39.14
592.741	39.61
593.083	40.05
593.424	40.45
593.766	40.93
594.108	41.4
594.449	41.9
594.791	42.3
595.132	42.69
595.474	43.08
595.815	43.45
596.156	43.87
596.497	44.24
596.839	44.69
597.18	45.14
597.521	45.55
597.862	45.92
598.203	46.38
598.544	46.83
598.885	47.32
599.226	47.77
599.567	48.26
599.908	48.78
600.249	49.33
600.589	49.87
600.93	50.44
601.271	50.98
601.611	51.48
601.952	52.02
602.292	52.49
602.633	52.95
602.973	53.45
603.314	53.88
603.654	54.36
603.995	54.7
604.335	55.1
604.675	55.48
605.015	55.87
605.355	56.17
605.695	56.57
606.036	56.94
606.376	57.35
606.715	57.76
607.055	58.16
607.395	58.54
607.735	58.97
608.075	59.34
608.415	59.72
608.754	60.13
609.094	60.45
609.434	60.84
609.773	61.16
610.113	61.51
610.452	61.89
610.792	62.14
611.131	62.45
611.471	62.7
611.81	63.04
612.149	63.36
612.488	63.69
612.828	64.04
613.167	64.4
613.506	64.75
613.845	65.1
614.184	65.35
614.523	65.61
614.862	65.9
615.201	66.21
615.539	66.52
615.878	66.8
616.217	67.16
616.556	67.41
616.894	67.66
617.233	67.89
617.571	68.03
617.91	68.3
618.248	68.53
618.587	68.81
618.925	69.07
619.264	69.33
619.602	69.55
619.94	69.71
620.278	69.92
620.617	70.07
620.955	70.24
621.293	70.46
621.631	70.75
621.969	70.99
622.307	71.2
622.645	71.4
622.983	71.6
623.32	71.81
623.658	72.07
623.996	72.32
624.334	72.66
624.671	73.01
625.009	73.27
625.346	73.54
625.684	73.73
626.021	73.88
626.359	74.05
626.696	74.24
627.033	74.41
627.371	74.54
627.708	74.77
628.045	74.91
628.382	75.09
628.719	75.27
629.056	75.4
629.394	75.61
629.73	75.78
630.067	75.95
630.404	76.07
630.741	76.2
631.078	76.36
631.415	76.43
631.751	76.5
632.088	76.49
632.425	76.52
632.761	76.58
633.098	76.78
633.434	76.87
633.771	77.05
634.107	77.21
634.443	77.35
634.78	77.44
635.116	77.56
635.452	77.65
635.788	77.75
636.124	77.86
636.46	77.95
636.797	78.06
637.133	78.06
637.468	78.2
637.804	78.22
638.14	78.28
638.476	78.22
638.812	78.33
639.147	78.51
639.483	78.59
639.819	78.7
640.154	78.69
640.49	78.64
640.825	78.5
641.161	78.41
641.496	78.45
641.832	78.46
642.167	78.51
642.502	78.53
642.837	78.51
643.172	78.65
643.508	78.63
643.843	78.66
644.178	78.8
644.513	78.81
644.848	78.87
645.183	78.9
645.517	78.99
645.852	79
646.187	78.96
646.522	79.08
646.856	79.14
647.191	79.19
647.526	79.37
647.86	79.61
648.195	79.82
648.529	79.76
648.863	79.75
649.198	79.85
649.532	79.88
649.866	79.96
650.201	79.8
650.535	79.87
650.869	79.88
651.203	79.94
651.537	80.03
651.871	80.04
652.205	80.06
652.539	80.22
652.873	80.13
653.206	80.28
653.54	80.3
653.874	80.35
654.208	80.37
654.541	80.34
654.875	80.44
655.208	80.52
655.542	80.68
655.875	80.81
656.209	80.79
656.542	80.89
656.875	80.98
657.208	81.21
657.542	81.24
657.875	81.31
658.208	81.19
658.541	81.18
658.874	81.22
659.207	81.29
659.54	81.2
659.873	81.16
660.206	80.99
660.538	80.91
660.871	80.87
661.204	80.85
661.536	80.92
661.869	80.84
662.202	80.72
662.534	80.65
662.867	80.5
663.199	80.53
